Temperature (K)	Pressure (MPa)	Density (l, kg/m3)	Volume (l, m3/kg)	Internal Energy (l, kJ/kg)	Enthalpy (l, kJ/kg)	Entropy (l, J/g*K)	Cv (l, J/g*K)	Cp (l, J/g*K)	Sound Spd. (l, m/s)	Joule-Thomson (l, K/MPa)	Viscosity (l, Pa*s)	Therm. Cond. (l, W/m*K)	Surf. Tension (l, N/m)	Density (v, kg/m3)	Volume (v, m3/kg)	Internal Energy (v, kJ/kg)	Enthalpy (v, kJ/kg)	Entropy (v, J/g*K)	Cv (v, J/g*K)	Cp (v, J/g*K)	Sound Spd. (v, m/s)	Joule-Thomson (v, K/MPa)	Viscosity (v, Pa*s)	Therm. Cond. (v, W/m*K)
64.000	0.014602	863.73	0.0011578	-149.05	-149.03	2.4524	1.1703	2.0016	986.57	-0.40156	0.00029492	0.17545	0.012032	0.77689	1.2872	46.794	65.589	5.8059	0.75071	1.0605	162.08	39.558	4.4346e-06	0.0062456
64.102	0.014869	863.31	0.0011583	-148.85	-148.83	2.4555	1.1696	2.0018	985.53	-0.40124	0.00029336	0.17522	0.012007	0.78996	1.2659	46.863	65.686	5.8021	0.75081	1.0608	162.19	39.423	4.4421e-06	0.0062550
64.203	0.015140	862.89	0.0011589	-148.64	-148.63	2.4587	1.1689	2.0020	984.49	-0.40092	0.00029182	0.17498	0.011982	0.80320	1.2450	46.933	65.783	5.7983	0.75092	1.0611	162.31	39.289	4.4496e-06	0.0062643
64.305	0.015415	862.47	0.0011595	-148.44	-148.42	2.4619	1.1682	2.0021	983.45	-0.40059	0.00029029	0.17475	0.011958	0.81661	1.2246	47.002	65.879	5.7945	0.75102	1.0614	162.42	39.156	4.4571e-06	0.0062736
64.407	0.015694	862.05	0.0011600	-148.24	-148.22	2.4650	1.1675	2.0023	982.41	-0.40027	0.00028877	0.17451	0.011933	0.83020	1.2045	47.071	65.975	5.7907	0.75112	1.0616	162.54	39.024	4.4646e-06	0.0062830
64.508	0.015977	861.63	0.0011606	-148.03	-148.02	2.4682	1.1668	2.0025	981.37	-0.39994	0.00028726	0.17428	0.011908	0.84397	1.1849	47.141	66.072	5.7870	0.75123	1.0619	162.65	38.892	4.4721e-06	0.0062923
64.610	0.016264	861.21	0.0011612	-147.83	-147.81	2.4714	1.1661	2.0027	980.34	-0.39961	0.00028576	0.17404	0.011884	0.85791	1.1656	47.210	66.168	5.7832	0.75133	1.0622	162.77	38.762	4.4796e-06	0.0063016
64.712	0.016556	860.79	0.0011617	-147.63	-147.61	2.4745	1.1654	2.0029	979.30	-0.39928	0.00028427	0.17381	0.011859	0.87203	1.1467	47.279	66.264	5.7795	0.75144	1.0625	162.88	38.632	4.4871e-06	0.0063110
64.813	0.016851	860.37	0.0011623	-147.42	-147.40	2.4776	1.1647	2.0030	978.26	-0.39894	0.00028279	0.17358	0.011834	0.88634	1.1282	47.348	66.360	5.7758	0.75154	1.0628	162.99	38.503	4.4946e-06	0.0063203
64.915	0.017151	859.95	0.0011629	-147.22	-147.20	2.4808	1.1640	2.0032	977.22	-0.39861	0.00028133	0.17334	0.011810	0.90083	1.1101	47.417	66.456	5.7721	0.75165	1.0631	163.11	38.374	4.5021e-06	0.0063296
65.017	0.017455	859.53	0.0011634	-147.02	-147.00	2.4839	1.1633	2.0034	976.19	-0.39827	0.00027987	0.17311	0.011785	0.91550	1.0923	47.486	66.551	5.7684	0.75176	1.0634	163.22	38.247	4.5096e-06	0.0063389
65.118	0.017763	859.11	0.0011640	-146.81	-146.79	2.4870	1.1626	2.0036	975.15	-0.39793	0.00027843	0.17288	0.011760	0.93036	1.0749	47.555	66.647	5.7648	0.75187	1.0637	163.33	38.120	4.5171e-06	0.0063483
65.220	0.018075	858.68	0.0011646	-146.61	-146.59	2.4902	1.1619	2.0038	974.12	-0.39759	0.00027699	0.17264	0.011736	0.94540	1.0577	47.623	66.742	5.7611	0.75198	1.0640	163.44	37.994	4.5246e-06	0.0063576
65.322	0.018392	858.26	0.0011651	-146.41	-146.38	2.4933	1.1612	2.0040	973.08	-0.39725	0.00027557	0.17241	0.011711	0.96064	1.0410	47.692	66.838	5.7575	0.75209	1.0643	163.56	37.869	4.5321e-06	0.0063669
65.423	0.018714	857.84	0.0011657	-146.20	-146.18	2.4964	1.1605	2.0042	972.05	-0.39691	0.00027416	0.17218	0.011686	0.97607	1.0245	47.761	66.933	5.7539	0.75220	1.0646	163.67	37.744	4.5396e-06	0.0063762
65.525	0.019039	857.42	0.0011663	-146.00	-145.98	2.4995	1.1598	2.0043	971.01	-0.39656	0.00027275	0.17194	0.011662	0.99168	1.0084	47.829	67.028	5.7503	0.75231	1.0649	163.78	37.621	4.5471e-06	0.0063855
65.627	0.019370	856.99	0.0011669	-145.80	-145.77	2.5026	1.1591	2.0045	969.98	-0.39622	0.00027136	0.17171	0.011637	1.0075	0.99256	47.898	67.123	5.7467	0.75242	1.0653	163.89	37.498	4.5546e-06	0.0063948
65.728	0.019705	856.57	0.0011674	-145.59	-145.57	2.5057	1.1584	2.0047	968.94	-0.39587	0.00026998	0.17148	0.011613	1.0235	0.97703	47.966	67.218	5.7431	0.75254	1.0656	164.00	37.375	4.5621e-06	0.0064042
65.830	0.020044	856.15	0.0011680	-145.39	-145.36	2.5088	1.1577	2.0049	967.91	-0.39552	0.00026860	0.17125	0.011588	1.0397	0.96180	48.034	67.313	5.7395	0.75265	1.0659	164.11	37.254	4.5697e-06	0.0064135
65.932	0.020389	855.72	0.0011686	-145.18	-145.16	2.5119	1.1570	2.0051	966.88	-0.39516	0.00026724	0.17101	0.011563	1.0561	0.94686	48.103	67.408	5.7360	0.75277	1.0662	164.22	37.133	4.5772e-06	0.0064228
66.033	0.020738	855.30	0.0011692	-144.98	-144.96	2.5150	1.1563	2.0053	965.85	-0.39481	0.00026589	0.17078	0.011539	1.0727	0.93220	48.171	67.503	5.7324	0.75288	1.0665	164.33	37.013	4.5847e-06	0.0064321
66.135	0.021091	854.87	0.0011698	-144.78	-144.75	2.5181	1.1556	2.0055	964.81	-0.39446	0.00026454	0.17055	0.011514	1.0895	0.91782	48.239	67.597	5.7289	0.75300	1.0669	164.44	36.894	4.5922e-06	0.0064414
66.237	0.021450	854.45	0.0011703	-144.57	-144.55	2.5212	1.1549	2.0057	963.78	-0.39410	0.00026321	0.17032	0.011490	1.1066	0.90371	48.307	67.691	5.7254	0.75312	1.0672	164.55	36.775	4.5997e-06	0.0064507
66.338	0.021813	854.02	0.0011709	-144.37	-144.34	2.5242	1.1542	2.0059	962.75	-0.39374	0.00026188	0.17009	0.011465	1.1238	0.88986	48.375	67.786	5.7219	0.75323	1.0675	164.66	36.657	4.6073e-06	0.0064600
66.440	0.022182	853.60	0.0011715	-144.17	-144.14	2.5273	1.1535	2.0061	961.72	-0.39338	0.00026057	0.16986	0.011441	1.1412	0.87627	48.443	67.880	5.7184	0.75335	1.0679	164.77	36.540	4.6148e-06	0.0064693
66.542	0.022555	853.17	0.0011721	-143.96	-143.93	2.5304	1.1528	2.0063	960.69	-0.39301	0.00025926	0.16962	0.011416	1.1588	0.86293	48.511	67.974	5.7150	0.75347	1.0682	164.88	36.423	4.6223e-06	0.0064787
66.643	0.022933	852.74	0.0011727	-143.76	-143.73	2.5334	1.1521	2.0065	959.66	-0.39265	0.00025797	0.16939	0.011392	1.1767	0.84984	48.578	68.068	5.7115	0.75359	1.0686	164.99	36.308	4.6298e-06	0.0064880
66.745	0.023316	852.32	0.0011733	-143.55	-143.53	2.5365	1.1514	2.0068	958.63	-0.39228	0.00025668	0.16916	0.011367	1.1947	0.83700	48.646	68.162	5.7081	0.75372	1.0689	165.10	36.192	4.6373e-06	0.0064973
66.847	0.023705	851.89	0.0011739	-143.35	-143.32	2.5395	1.1507	2.0070	957.60	-0.39191	0.00025540	0.16893	0.011343	1.2130	0.82439	48.714	68.255	5.7047	0.75384	1.0693	165.21	36.078	4.6449e-06	0.0065066
66.948	0.024098	851.47	0.0011744	-143.15	-143.12	2.5426	1.1501	2.0072	956.57	-0.39154	0.00025413	0.16870	0.011318	1.2315	0.81201	48.781	68.349	5.7012	0.75396	1.0696	165.31	35.964	4.6524e-06	0.0065159
67.050	0.024497	851.04	0.0011750	-142.94	-142.91	2.5456	1.1494	2.0074	955.54	-0.39117	0.00025287	0.16847	0.011294	1.2502	0.79985	48.849	68.442	5.6978	0.75408	1.0700	165.42	35.851	4.6599e-06	0.0065252
67.152	0.024901	850.61	0.0011756	-142.74	-142.71	2.5487	1.1487	2.0076	954.51	-0.39079	0.00025162	0.16824	0.011269	1.2692	0.78792	48.916	68.536	5.6945	0.75421	1.0703	165.53	35.739	4.6675e-06	0.0065346
67.253	0.025310	850.18	0.0011762	-142.53	-142.50	2.5517	1.1480	2.0078	953.48	-0.39042	0.00025038	0.16801	0.011245	1.2883	0.77621	48.983	68.629	5.6911	0.75434	1.0707	165.64	35.627	4.6750e-06	0.0065439
67.355	0.025724	849.75	0.0011768	-142.33	-142.30	2.5547	1.1473	2.0081	952.45	-0.39004	0.00024914	0.16778	0.011221	1.3077	0.76471	49.050	68.722	5.6877	0.75446	1.0710	165.74	35.516	4.6825e-06	0.0065532
67.457	0.026144	849.33	0.0011774	-142.13	-142.10	2.5578	1.1466	2.0083	951.42	-0.38966	0.00024792	0.16755	0.011196	1.3273	0.75342	49.117	68.815	5.6844	0.75459	1.0714	165.85	35.405	4.6901e-06	0.0065625
67.558	0.026569	848.90	0.0011780	-141.92	-141.89	2.5608	1.1459	2.0085	950.39	-0.38928	0.00024670	0.16732	0.011172	1.3471	0.74233	49.185	68.908	5.6810	0.75472	1.0718	165.95	35.295	4.6976e-06	0.0065718
67.660	0.027000	848.47	0.0011786	-141.72	-141.69	2.5638	1.1452	2.0087	949.36	-0.38889	0.00024549	0.16709	0.011147	1.3672	0.73144	49.251	69.000	5.6777	0.75485	1.0722	166.06	35.186	4.7052e-06	0.0065812
67.762	0.027436	848.04	0.0011792	-141.51	-141.48	2.5668	1.1445	2.0090	948.34	-0.38851	0.00024429	0.16686	0.011123	1.3874	0.72075	49.318	69.093	5.6744	0.75498	1.0725	166.17	35.077	4.7127e-06	0.0065905
67.863	0.027878	847.61	0.0011798	-141.31	-141.28	2.5698	1.1439	2.0092	947.31	-0.38812	0.00024310	0.16663	0.011099	1.4080	0.71025	49.385	69.186	5.6711	0.75511	1.0729	166.27	34.969	4.7202e-06	0.0065998
67.965	0.028326	847.18	0.0011804	-141.11	-141.07	2.5728	1.1432	2.0094	946.28	-0.38773	0.00024192	0.16640	0.011074	1.4287	0.69993	49.452	69.278	5.6678	0.75524	1.0733	166.38	34.862	4.7278e-06	0.0066092
68.067	0.028779	846.75	0.0011810	-140.90	-140.87	2.5758	1.1425	2.0097	945.25	-0.38734	0.00024074	0.16617	0.011050	1.4497	0.68980	49.518	69.370	5.6645	0.75537	1.0737	166.48	34.755	4.7353e-06	0.0066185
68.168	0.029238	846.32	0.0011816	-140.70	-140.66	2.5788	1.1418	2.0099	944.22	-0.38694	0.00023958	0.16594	0.011026	1.4709	0.67985	49.585	69.462	5.6613	0.75550	1.0741	166.59	34.649	4.7429e-06	0.0066278
68.270	0.029702	845.89	0.0011822	-140.49	-140.46	2.5818	1.1411	2.0101	943.20	-0.38654	0.00023842	0.16572	0.011001	1.4924	0.67007	49.651	69.554	5.6580	0.75564	1.0745	166.69	34.543	4.7504e-06	0.0066372
68.372	0.030173	845.46	0.0011828	-140.29	-140.25	2.5848	1.1404	2.0104	942.17	-0.38615	0.00023727	0.16549	0.010977	1.5141	0.66047	49.718	69.646	5.6548	0.75577	1.0749	166.79	34.439	4.7580e-06	0.0066465
68.473	0.030649	845.03	0.0011834	-140.09	-140.05	2.5878	1.1398	2.0106	941.14	-0.38575	0.00023613	0.16526	0.010953	1.5360	0.65103	49.784	69.738	5.6516	0.75591	1.0752	166.90	34.334	4.7655e-06	0.0066559
68.575	0.031132	844.60	0.0011840	-139.88	-139.84	2.5908	1.1391	2.0109	940.12	-0.38534	0.00023499	0.16503	0.010928	1.5582	0.64176	49.850	69.829	5.6484	0.75604	1.0756	167.00	34.231	4.7731e-06	0.0066652
68.677	0.031620	844.16	0.0011846	-139.68	-139.64	2.5938	1.1384	2.0111	939.09	-0.38494	0.00023386	0.16480	0.010904	1.5807	0.63265	49.916	69.921	5.6452	0.75618	1.0761	167.11	34.127	4.7807e-06	0.0066746
68.778	0.032114	843.73	0.0011852	-139.47	-139.43	2.5967	1.1377	2.0113	938.06	-0.38453	0.00023275	0.16457	0.010880	1.6033	0.62370	49.982	70.012	5.6420	0.75632	1.0765	167.21	34.025	4.7882e-06	0.0066840
68.880	0.032614	843.30	0.0011858	-139.27	-139.23	2.5997	1.1371	2.0116	937.04	-0.38412	0.00023163	0.16435	0.010856	1.6263	0.61490	50.048	70.103	5.6388	0.75646	1.0769	167.31	33.923	4.7958e-06	0.0066933
68.982	0.033121	842.87	0.0011864	-139.06	-139.02	2.6027	1.1364	2.0118	936.01	-0.38371	0.00023053	0.16412	0.010831	1.6495	0.60626	50.114	70.194	5.6356	0.75660	1.0773	167.41	33.821	4.8033e-06	0.0067027
69.083	0.033634	842.43	0.0011870	-138.86	-138.82	2.6056	1.1357	2.0121	934.99	-0.38330	0.00022943	0.16389	0.010807	1.6729	0.59777	50.180	70.285	5.6325	0.75674	1.0777	167.52	33.721	4.8109e-06	0.0067121
69.185	0.034153	842.00	0.0011876	-138.66	-138.61	2.6086	1.1350	2.0124	933.96	-0.38288	0.00022835	0.16366	0.010783	1.6966	0.58942	50.245	70.376	5.6293	0.75688	1.0781	167.62	33.620	4.8185e-06	0.0067214
69.287	0.034678	841.57	0.0011883	-138.45	-138.41	2.6115	1.1344	2.0126	932.93	-0.38246	0.00022726	0.16343	0.010759	1.7205	0.58121	50.311	70.466	5.6262	0.75702	1.0785	167.72	33.521	4.8260e-06	0.0067308
69.388	0.035210	841.13	0.0011889	-138.25	-138.20	2.6145	1.1337	2.0129	931.91	-0.38204	0.00022619	0.16321	0.010735	1.7448	0.57315	50.377	70.557	5.6231	0.75717	1.0790	167.82	33.422	4.8336e-06	0.0067402
69.490	0.035748	840.70	0.0011895	-138.04	-138.00	2.6174	1.1330	2.0131	930.88	-0.38162	0.00022512	0.16298	0.010710	1.7692	0.56522	50.442	70.647	5.6200	0.75731	1.0794	167.92	33.323	4.8412e-06	0.0067496
69.592	0.036292	840.26	0.0011901	-137.84	-137.79	2.6204	1.1323	2.0134	929.86	-0.38120	0.00022407	0.16275	0.010686	1.7940	0.55743	50.507	70.737	5.6169	0.75746	1.0798	168.02	33.225	4.8488e-06	0.0067590
69.693	0.036843	839.83	0.0011907	-137.63	-137.59	2.6233	1.1317	2.0137	928.83	-0.38077	0.00022301	0.16253	0.010662	1.8190	0.54976	50.572	70.827	5.6138	0.75760	1.0803	168.12	33.127	4.8564e-06	0.0067684
69.795	0.037400	839.39	0.0011913	-137.43	-137.38	2.6262	1.1310	2.0139	927.81	-0.38034	0.00022197	0.16230	0.010638	1.8442	0.54223	50.638	70.917	5.6107	0.75775	1.0807	168.22	33.031	4.8639e-06	0.0067778
69.897	0.037965	838.96	0.0011920	-137.22	-137.18	2.6292	1.1303	2.0142	926.78	-0.37991	0.00022093	0.16207	0.010614	1.8698	0.53483	50.703	71.007	5.6076	0.75790	1.0811	168.32	32.934	4.8715e-06	0.0067872
69.998	0.038535	838.52	0.0011926	-137.02	-136.97	2.6321	1.1297	2.0145	925.76	-0.37948	0.00021990	0.16185	0.010590	1.8956	0.52755	50.768	71.097	5.6046	0.75805	1.0816	168.42	32.838	4.8791e-06	0.0067966
70.100	0.039113	838.09	0.0011932	-136.82	-136.77	2.6350	1.1290	2.0148	924.73	-0.37904	0.00021888	0.16162	0.010566	1.9216	0.52039	50.832	71.186	5.6015	0.75820	1.0820	168.52	32.743	4.8867e-06	0.0068060
70.202	0.039697	837.65	0.0011938	-136.61	-136.56	2.6379	1.1283	2.0150	923.71	-0.37860	0.00021786	0.16139	0.010541	1.9480	0.51335	50.897	71.276	5.5985	0.75835	1.0825	168.62	32.648	4.8943e-06	0.0068155
70.303	0.040288	837.21	0.0011944	-136.41	-136.36	2.6408	1.1277	2.0153	922.68	-0.37816	0.00021685	0.16117	0.010517	1.9746	0.50642	50.962	71.365	5.5955	0.75850	1.0829	168.72	32.554	4.9019e-06	0.0068249
70.405	0.040886	836.78	0.0011951	-136.20	-136.15	2.6437	1.1270	2.0156	921.66	-0.37772	0.00021585	0.16094	0.010493	2.0015	0.49962	51.026	71.454	5.5925	0.75865	1.0834	168.82	32.460	4.9095e-06	0.0068344
70.507	0.041491	836.34	0.0011957	-136.00	-135.95	2.6466	1.1263	2.0159	920.63	-0.37728	0.00021485	0.16072	0.010469	2.0287	0.49292	51.091	71.543	5.5895	0.75880	1.0839	168.91	32.367	4.9171e-06	0.0068438
70.608	0.042103	835.90	0.0011963	-135.79	-135.74	2.6495	1.1257	2.0162	919.61	-0.37683	0.00021386	0.16049	0.010445	2.0562	0.48634	51.155	71.632	5.5865	0.75896	1.0843	169.01	32.274	4.9247e-06	0.0068533
70.710	0.042722	835.46	0.0011969	-135.59	-135.54	2.6524	1.1250	2.0165	918.58	-0.37638	0.00021288	0.16026	0.010421	2.0839	0.47986	51.219	71.720	5.5835	0.75911	1.0848	169.11	32.182	4.9323e-06	0.0068627
70.812	0.043348	835.02	0.0011976	-135.38	-135.33	2.6553	1.1244	2.0168	917.56	-0.37593	0.00021190	0.16004	0.010397	2.1120	0.47349	51.284	71.809	5.5805	0.75927	1.0853	169.21	32.090	4.9399e-06	0.0068722
70.913	0.043982	834.58	0.0011982	-135.18	-135.13	2.6582	1.1237	2.0171	916.53	-0.37547	0.00021093	0.15981	0.010373	2.1403	0.46722	51.348	71.897	5.5776	0.75943	1.0858	169.30	31.999	4.9475e-06	0.0068817
71.015	0.044622	834.15	0.0011988	-134.97	-134.92	2.6611	1.1230	2.0174	915.51	-0.37502	0.00020997	0.15959	0.010349	2.1689	0.46106	51.412	71.985	5.5746	0.75958	1.0862	169.40	31.908	4.9551e-06	0.0068912
71.117	0.045270	833.71	0.0011995	-134.77	-134.71	2.6640	1.1224	2.0177	914.48	-0.37456	0.00020901	0.15936	0.010325	2.1978	0.45499	51.476	72.073	5.5717	0.75974	1.0867	169.50	31.818	4.9627e-06	0.0069006
71.218	0.045925	833.27	0.0012001	-134.56	-134.51	2.6669	1.1217	2.0180	913.46	-0.37410	0.00020806	0.15914	0.010301	2.2270	0.44903	51.539	72.161	5.5688	0.75990	1.0872	169.59	31.728	4.9703e-06	0.0069101
71.320	0.046588	832.83	0.0012007	-134.36	-134.30	2.6697	1.1211	2.0183	912.43	-0.37363	0.00020711	0.15891	0.010277	2.2565	0.44316	51.603	72.249	5.5659	0.76006	1.0877	169.69	31.639	4.9779e-06	0.0069196
71.422	0.047257	832.39	0.0012014	-134.15	-134.10	2.6726	1.1204	2.0186	911.41	-0.37317	0.00020617	0.15869	0.010253	2.2863	0.43738	51.667	72.336	5.5630	0.76022	1.0882	169.78	31.550	4.9856e-06	0.0069292
71.523	0.047935	831.95	0.0012020	-133.95	-133.89	2.6755	1.1198	2.0189	910.38	-0.37270	0.00020524	0.15847	0.010229	2.3164	0.43170	51.730	72.424	5.5601	0.76038	1.0887	169.88	31.462	4.9932e-06	0.0069387
71.625	0.048620	831.50	0.0012026	-133.74	-133.69	2.6783	1.1191	2.0192	909.36	-0.37223	0.00020432	0.15824	0.010205	2.3468	0.42611	51.794	72.511	5.5572	0.76055	1.0892	169.97	31.374	5.0008e-06	0.0069482
71.727	0.049313	831.06	0.0012033	-133.54	-133.48	2.6812	1.1185	2.0195	908.33	-0.37175	0.00020340	0.15802	0.010181	2.3775	0.42061	51.857	72.598	5.5543	0.76071	1.0897	170.07	31.287	5.0084e-06	0.0069578
71.828	0.050013	830.62	0.0012039	-133.33	-133.27	2.6841	1.1178	2.0198	907.31	-0.37127	0.00020248	0.15779	0.010157	2.4085	0.41519	51.920	72.685	5.5514	0.76088	1.0902	170.16	31.200	5.0161e-06	0.0069673
71.930	0.050721	830.18	0.0012046	-133.13	-133.07	2.6869	1.1172	2.0201	906.28	-0.37080	0.00020157	0.15757	0.010133	2.4398	0.40987	51.983	72.772	5.5486	0.76104	1.0907	170.26	31.113	5.0237e-06	0.0069769
72.032	0.051437	829.74	0.0012052	-132.92	-132.86	2.6898	1.1165	2.0205	905.26	-0.37031	0.00020067	0.15735	0.010110	2.4714	0.40462	52.046	72.859	5.5457	0.76121	1.0912	170.35	31.028	5.0313e-06	0.0069864
72.133	0.052160	829.29	0.0012058	-132.72	-132.66	2.6926	1.1159	2.0208	904.23	-0.36983	0.00019978	0.15712	0.010086	2.5034	0.39946	52.109	72.945	5.5429	0.76138	1.0918	170.44	30.942	5.0390e-06	0.0069960
72.235	0.052892	828.85	0.0012065	-132.51	-132.45	2.6954	1.1152	2.0211	903.21	-0.36934	0.00019889	0.15690	0.010062	2.5356	0.39438	52.172	73.031	5.5401	0.76154	1.0923	170.54	30.857	5.0466e-06	0.0070056
72.337	0.053632	828.41	0.0012071	-132.31	-132.24	2.6983	1.1146	2.0214	902.18	-0.36885	0.00019800	0.15668	0.010038	2.5682	0.38938	52.235	73.118	5.5373	0.76171	1.0928	170.63	30.772	5.0543e-06	0.0070152
72.438	0.054379	827.96	0.0012078	-132.10	-132.04	2.7011	1.1139	2.0218	901.16	-0.36836	0.00019712	0.15645	0.010014	2.6011	0.38446	52.297	73.204	5.5345	0.76188	1.0933	170.72	30.688	5.0619e-06	0.0070248
72.540	0.055135	827.52	0.0012084	-131.90	-131.83	2.7040	1.1133	2.0221	900.13	-0.36787	0.00019625	0.15623	0.0099902	2.6343	0.37961	52.360	73.290	5.5317	0.76206	1.0939	170.81	30.605	5.0696e-06	0.0070344
72.642	0.055899	827.08	0.0012091	-131.69	-131.63	2.7068	1.1127	2.0225	899.11	-0.36737	0.00019538	0.15601	0.0099664	2.6678	0.37484	52.422	73.375	5.5289	0.76223	1.0944	170.91	30.521	5.0772e-06	0.0070440
72.743	0.056671	826.63	0.0012097	-131.49	-131.42	2.7096	1.1120	2.0228	898.08	-0.36687	0.00019452	0.15578	0.0099426	2.7016	0.37015	52.484	73.461	5.5261	0.76240	1.0950	171.00	30.439	5.0849e-06	0.0070537
72.845	0.057451	826.19	0.0012104	-131.28	-131.21	2.7124	1.1114	2.0231	897.05	-0.36637	0.00019366	0.15556	0.0099188	2.7358	0.36553	52.546	73.546	5.5233	0.76257	1.0955	171.09	30.356	5.0925e-06	0.0070633
72.947	0.058239	825.74	0.0012110	-131.08	-131.01	2.7152	1.1107	2.0235	896.03	-0.36586	0.00019281	0.15534	0.0098950	2.7703	0.36097	52.608	73.631	5.5206	0.76275	1.0960	171.18	30.274	5.1002e-06	0.0070730
73.048	0.059036	825.30	0.0012117	-130.87	-130.80	2.7181	1.1101	2.0238	895.00	-0.36535	0.00019197	0.15512	0.0098712	2.8051	0.35649	52.670	73.716	5.5178	0.76293	1.0966	171.27	30.193	5.1079e-06	0.0070826
73.150	0.059842	824.85	0.0012123	-130.67	-130.59	2.7209	1.1095	2.0242	893.98	-0.36484	0.00019113	0.15489	0.0098474	2.8403	0.35208	52.732	73.801	5.5151	0.76310	1.0972	171.36	30.112	5.1155e-06	0.0070923
73.252	0.060656	824.40	0.0012130	-130.46	-130.39	2.7237	1.1088	2.0245	892.95	-0.36433	0.00019029	0.15467	0.0098237	2.8758	0.34774	52.794	73.886	5.5123	0.76328	1.0977	171.45	30.031	5.1232e-06	0.0071020
73.353	0.061478	823.96	0.0012137	-130.26	-130.18	2.7265	1.1082	2.0249	891.93	-0.36381	0.00018947	0.15445	0.0097999	2.9116	0.34346	52.855	73.971	5.5096	0.76346	1.0983	171.54	29.951	5.1309e-06	0.0071117
73.455	0.062309	823.51	0.0012143	-130.05	-129.97	2.7293	1.1076	2.0253	890.90	-0.36330	0.00018864	0.15423	0.0097762	2.9477	0.33924	52.917	74.055	5.5069	0.76364	1.0989	171.63	29.871	5.1386e-06	0.0071214
73.557	0.063149	823.06	0.0012150	-129.85	-129.77	2.7321	1.1069	2.0256	889.87	-0.36277	0.00018782	0.15400	0.0097525	2.9843	0.33509	52.978	74.139	5.5042	0.76382	1.0994	171.72	29.792	5.1462e-06	0.0071312
73.658	0.063997	822.61	0.0012156	-129.64	-129.56	2.7349	1.1063	2.0260	888.85	-0.36225	0.00018701	0.15378	0.0097287	3.0211	0.33101	53.040	74.223	5.5015	0.76400	1.1000	171.81	29.713	5.1539e-06	0.0071409
73.760	0.064855	822.17	0.0012163	-129.43	-129.36	2.7377	1.1057	2.0264	887.82	-0.36172	0.00018620	0.15356	0.0097050	3.0583	0.32698	53.101	74.307	5.4988	0.76418	1.1006	171.90	29.634	5.1616e-06	0.0071506
73.862	0.065721	821.72	0.0012170	-129.23	-129.15	2.7404	1.1050	2.0267	886.79	-0.36119	0.00018540	0.15334	0.0096814	3.0958	0.32301	53.162	74.391	5.4961	0.76437	1.1012	171.98	29.556	5.1693e-06	0.0071604
73.963	0.066596	821.27	0.0012176	-129.02	-128.94	2.7432	1.1044	2.0271	885.77	-0.36066	0.00018460	0.15312	0.0096577	3.1337	0.31911	53.223	74.474	5.4934	0.76455	1.1018	172.07	29.478	5.1770e-06	0.0071702
74.065	0.067480	820.82	0.0012183	-128.82	-128.73	2.7460	1.1038	2.0275	884.74	-0.36012	0.00018381	0.15290	0.0096340	3.1720	0.31526	53.284	74.558	5.4908	0.76474	1.1024	172.16	29.401	5.1847e-06	0.0071800
74.167	0.068373	820.37	0.0012190	-128.61	-128.53	2.7488	1.1032	2.0279	883.71	-0.35958	0.00018302	0.15268	0.0096104	3.2106	0.31147	53.344	74.641	5.4881	0.76492	1.1030	172.25	29.324	5.1924e-06	0.0071898
74.268	0.069275	819.92	0.0012196	-128.41	-128.32	2.7515	1.1025	2.0283	882.68	-0.35904	0.00018224	0.15246	0.0095867	3.2495	0.30774	53.405	74.724	5.4855	0.76511	1.1036	172.33	29.247	5.2001e-06	0.0071996
74.370	0.070187	819.47	0.0012203	-128.20	-128.11	2.7543	1.1019	2.0286	881.66	-0.35850	0.00018146	0.15224	0.0095631	3.2888	0.30406	53.466	74.807	5.4828	0.76530	1.1042	172.42	29.171	5.2078e-06	0.0072094
74.472	0.071107	819.02	0.0012210	-127.99	-127.91	2.7571	1.1013	2.0290	880.63	-0.35795	0.00018069	0.15201	0.0095395	3.3285	0.30044	53.526	74.889	5.4802	0.76549	1.1048	172.51	29.095	5.2155e-06	0.0072192
74.573	0.072037	818.57	0.0012216	-127.79	-127.70	2.7598	1.1007	2.0294	879.60	-0.35740	0.00017992	0.15179	0.0095159	3.3685	0.29687	53.586	74.972	5.4776	0.76568	1.1054	172.59	29.020	5.2232e-06	0.0072291
74.675	0.072977	818.12	0.0012223	-127.58	-127.49	2.7626	1.1000	2.0298	878.57	-0.35685	0.00017916	0.15157	0.0094923	3.4089	0.29335	53.646	75.054	5.4750	0.76587	1.1060	172.68	28.945	5.2310e-06	0.0072390
74.777	0.073925	817.67	0.0012230	-127.38	-127.29	2.7654	1.0994	2.0302	877.54	-0.35629	0.00017840	0.15135	0.0094687	3.4496	0.28989	53.706	75.136	5.4724	0.76606	1.1066	172.76	28.870	5.2387e-06	0.0072488
74.878	0.074883	817.21	0.0012237	-127.17	-127.08	2.7681	1.0988	2.0306	876.52	-0.35573	0.00017765	0.15113	0.0094452	3.4907	0.28647	53.766	75.218	5.4698	0.76626	1.1073	172.85	28.796	5.2464e-06	0.0072587
74.980	0.075851	816.76	0.0012243	-126.97	-126.87	2.7709	1.0982	2.0310	875.49	-0.35517	0.00017690	0.15091	0.0094216	3.5322	0.28311	53.826	75.300	5.4672	0.76645	1.1079	172.93	28.722	5.2541e-06	0.0072686
75.082	0.076828	816.31	0.0012250	-126.76	-126.66	2.7736	1.0976	2.0315	874.46	-0.35460	0.00017615	0.15069	0.0093981	3.5741	0.27979	53.886	75.382	5.4646	0.76665	1.1085	173.02	28.648	5.2619e-06	0.0072786
75.183	0.077815	815.85	0.0012257	-126.55	-126.46	2.7763	1.0969	2.0319	873.43	-0.35403	0.00017541	0.15047	0.0093745	3.6163	0.27652	53.945	75.463	5.4621	0.76684	1.1092	173.10	28.575	5.2696e-06	0.0072885
75.285	0.078812	815.40	0.0012264	-126.35	-126.25	2.7791	1.0963	2.0323	872.40	-0.35346	0.00017468	0.15025	0.0093510	3.6590	0.27330	54.005	75.544	5.4595	0.76704	1.1098	173.19	28.502	5.2774e-06	0.0072985
75.387	0.079819	814.95	0.0012271	-126.14	-126.04	2.7818	1.0957	2.0327	871.37	-0.35289	0.00017395	0.15003	0.0093275	3.7020	0.27013	54.064	75.625	5.4569	0.76724	1.1105	173.27	28.430	5.2851e-06	0.0073084
75.488	0.080835	814.49	0.0012278	-125.93	-125.84	2.7846	1.0951	2.0331	870.34	-0.35231	0.00017322	0.14982	0.0093040	3.7453	0.26700	54.123	75.706	5.4544	0.76744	1.1111	173.35	28.358	5.2929e-06	0.0073184
75.590	0.081861	814.04	0.0012284	-125.73	-125.63	2.7873	1.0945	2.0335	869.31	-0.35173	0.00017250	0.14960	0.0092805	3.7891	0.26392	54.182	75.787	5.4519	0.76764	1.1118	173.44	28.286	5.3006e-06	0.0073284
75.692	0.082898	813.58	0.0012291	-125.52	-125.42	2.7900	1.0939	2.0340	868.28	-0.35114	0.00017178	0.14938	0.0092571	3.8332	0.26088	54.241	75.867	5.4493	0.76784	1.1124	173.52	28.215	5.3084e-06	0.0073384
75.793	0.083944	813.13	0.0012298	-125.32	-125.21	2.7927	1.0933	2.0344	867.25	-0.35056	0.00017107	0.14916	0.0092336	3.8778	0.25788	54.300	75.948	5.4468	0.76804	1.1131	173.60	28.144	5.3161e-06	0.0073485
75.895	0.085000	812.67	0.0012305	-125.11	-125.01	2.7955	1.0927	2.0348	866.22	-0.34997	0.00017036	0.14894	0.0092102	3.9227	0.25493	54.359	76.028	5.4443	0.76824	1.1138	173.68	28.073	5.3239e-06	0.0073585
75.997	0.086067	812.22	0.0012312	-124.90	-124.80	2.7982	1.0921	2.0353	865.19	-0.34937	0.00016966	0.14872	0.0091867	3.9680	0.25202	54.418	76.108	5.4418	0.76845	1.1145	173.76	28.003	5.3317e-06	0.0073686
76.098	0.087144	811.76	0.0012319	-124.70	-124.59	2.8009	1.0915	2.0357	864.16	-0.34877	0.00016896	0.14850	0.0091633	4.0137	0.24915	54.476	76.188	5.4393	0.76865	1.1151	173.85	27.933	5.3394e-06	0.0073786
76.200	0.088231	811.30	0.0012326	-124.49	-124.38	2.8036	1.0909	2.0362	863.13	-0.34817	0.00016826	0.14828	0.0091399	4.0598	0.24632	54.534	76.267	5.4368	0.76886	1.1158	173.93	27.864	5.3472e-06	0.0073887
76.302	0.089328	810.85	0.0012333	-124.28	-124.17	2.8063	1.0903	2.0366	862.09	-0.34757	0.00016757	0.14806	0.0091165	4.1063	0.24353	54.593	76.347	5.4343	0.76907	1.1165	174.01	27.794	5.3550e-06	0.0073989
76.403	0.090436	810.39	0.0012340	-124.08	-123.97	2.8090	1.0896	2.0371	861.06	-0.34696	0.00016689	0.14785	0.0090931	4.1532	0.24078	54.651	76.426	5.4318	0.76927	1.1172	174.09	27.725	5.3628e-06	0.0074090
76.505	0.091555	809.93	0.0012347	-123.87	-123.76	2.8117	1.0890	2.0375	860.03	-0.34635	0.00016620	0.14763	0.0090698	4.2005	0.23807	54.709	76.505	5.4294	0.76948	1.1179	174.17	27.657	5.3706e-06	0.0074191
76.607	0.092684	809.47	0.0012354	-123.67	-123.55	2.8144	1.0884	2.0380	859.00	-0.34574	0.00016552	0.14741	0.0090464	4.2482	0.23539	54.767	76.584	5.4269	0.76969	1.1186	174.25	27.589	5.3784e-06	0.0074293
76.708	0.093823	809.01	0.0012361	-123.46	-123.34	2.8171	1.0879	2.0385	857.97	-0.34512	0.00016485	0.14719	0.0090230	4.2964	0.23276	54.824	76.662	5.4244	0.76991	1.1193	174.33	27.521	5.3862e-06	0.0074395
76.810	0.094974	808.55	0.0012368	-123.25	-123.13	2.8198	1.0873	2.0389	856.93	-0.34450	0.00016418	0.14697	0.0089997	4.3449	0.23016	54.882	76.741	5.4220	0.77012	1.1200	174.41	27.453	5.3940e-06	0.0074497
76.912	0.096135	808.09	0.0012375	-123.05	-122.93	2.8225	1.0867	2.0394	855.90	-0.34388	0.00016351	0.14676	0.0089764	4.3938	0.22759	54.939	76.819	5.4196	0.77033	1.1207	174.48	27.386	5.4018e-06	0.0074599
77.013	0.097307	807.63	0.0012382	-122.84	-122.72	2.8252	1.0861	2.0399	854.87	-0.34325	0.00016285	0.14654	0.0089531	4.4432	0.22506	54.997	76.897	5.4171	0.77055	1.1215	174.56	27.319	5.4096e-06	0.0074701
77.115	0.098489	807.17	0.0012389	-122.63	-122.51	2.8279	1.0855	2.0403	853.83	-0.34262	0.00016219	0.14632	0.0089298	4.4930	0.22257	55.054	76.975	5.4147	0.77076	1.1222	174.64	27.252	5.4174e-06	0.0074804
77.217	0.099683	806.71	0.0012396	-122.43	-122.30	2.8305	1.0849	2.0408	852.80	-0.34199	0.00016154	0.14611	0.0089065	4.5432	0.22011	55.111	77.052	5.4123	0.77098	1.1229	174.72	27.186	5.4252e-06	0.0074907
77.318	0.10089	806.25	0.0012403	-122.22	-122.09	2.8332	1.0843	2.0413	851.76	-0.34135	0.00016089	0.14589	0.0088832	4.5938	0.21769	55.168	77.130	5.4099	0.77120	1.1237	174.80	27.120	5.4331e-06	0.0075010
77.420	0.10210	805.79	0.0012410	-122.01	-121.89	2.8359	1.0837	2.0418	850.73	-0.34071	0.00016024	0.14567	0.0088600	4.6448	0.21529	55.225	77.207	5.4075	0.77142	1.1244	174.87	27.055	5.4409e-06	0.0075113
77.522	0.10333	805.33	0.0012417	-121.80	-121.68	2.8386	1.0831	2.0423	849.69	-0.34007	0.00015960	0.14545	0.0088367	4.6963	0.21293	55.282	77.284	5.4051	0.77164	1.1251	174.95	26.989	5.4487e-06	0.0075216
77.623	0.10457	804.86	0.0012424	-121.60	-121.47	2.8412	1.0825	2.0428	848.66	-0.33942	0.00015896	0.14524	0.0088135	4.7482	0.21061	55.338	77.361	5.4027	0.77186	1.1259	175.03	26.924	5.4566e-06	0.0075320
77.725	0.10582	804.40	0.0012432	-121.39	-121.26	2.8439	1.0819	2.0433	847.62	-0.33877	0.00015833	0.14502	0.0087903	4.8005	0.20831	55.395	77.438	5.4003	0.77208	1.1267	175.10	26.860	5.4644e-06	0.0075424
77.827	0.10708	803.94	0.0012439	-121.18	-121.05	2.8466	1.0813	2.0438	846.59	-0.33811	0.00015769	0.14480	0.0087671	4.8533	0.20605	55.451	77.514	5.3979	0.77230	1.1274	175.18	26.795	5.4723e-06	0.0075527
77.928	0.10835	803.48	0.0012446	-120.98	-120.84	2.8492	1.0808	2.0443	845.55	-0.33745	0.00015707	0.14459	0.0087439	4.9065	0.20381	55.507	77.590	5.3956	0.77252	1.1282	175.25	26.731	5.4801e-06	0.0075632
78.030	0.10964	803.01	0.0012453	-120.77	-120.63	2.8519	1.0802	2.0448	844.51	-0.33679	0.00015644	0.14437	0.0087207	4.9601	0.20161	55.563	77.666	5.3932	0.77275	1.1290	175.33	26.668	5.4880e-06	0.0075736
78.132	0.11093	802.55	0.0012460	-120.56	-120.42	2.8545	1.0796	2.0453	843.48	-0.33613	0.00015582	0.14416	0.0086975	5.0142	0.19943	55.619	77.742	5.3908	0.77298	1.1297	175.40	26.604	5.4958e-06	0.0075841
78.233	0.11224	802.08	0.0012468	-120.36	-120.22	2.8572	1.0790	2.0459	842.44	-0.33546	0.00015521	0.14394	0.0086744	5.0687	0.19729	55.675	77.818	5.3885	0.77320	1.1305	175.48	26.541	5.5037e-06	0.0075945
78.335	0.11356	801.62	0.0012475	-120.15	-120.01	2.8598	1.0784	2.0464	841.40	-0.33478	0.00015459	0.14372	0.0086512	5.1237	0.19517	55.730	77.893	5.3862	0.77343	1.1313	175.55	26.478	5.5116e-06	0.0076050
78.437	0.11489	801.15	0.0012482	-119.94	-119.80	2.8625	1.0778	2.0469	840.37	-0.33411	0.00015398	0.14351	0.0086281	5.1791	0.19308	55.786	77.969	5.3838	0.77366	1.1321	175.63	26.416	5.5195e-06	0.0076155
78.538	0.11623	800.68	0.0012489	-119.73	-119.59	2.8651	1.0773	2.0474	839.33	-0.33343	0.00015338	0.14329	0.0086050	5.2350	0.19102	55.841	78.044	5.3815	0.77389	1.1329	175.70	26.353	5.5274e-06	0.0076261
78.640	0.11758	800.22	0.0012497	-119.53	-119.38	2.8677	1.0767	2.0480	838.29	-0.33274	0.00015278	0.14308	0.0085819	5.2913	0.18899	55.897	78.118	5.3792	0.77412	1.1337	175.77	26.291	5.5352e-06	0.0076367
78.742	0.11895	799.75	0.0012504	-119.32	-119.17	2.8704	1.0761	2.0485	837.25	-0.33205	0.00015218	0.14286	0.0085588	5.3481	0.18698	55.952	78.193	5.3769	0.77436	1.1345	175.85	26.230	5.5431e-06	0.0076472
78.843	0.12033	799.28	0.0012511	-119.11	-118.96	2.8730	1.0755	2.0491	836.21	-0.33136	0.00015158	0.14265	0.0085357	5.4053	0.18500	56.007	78.268	5.3745	0.77459	1.1353	175.92	26.168	5.5510e-06	0.0076578
78.945	0.12172	798.82	0.0012519	-118.90	-118.75	2.8756	1.0750	2.0496	835.17	-0.33067	0.00015099	0.14243	0.0085126	5.4630	0.18305	56.061	78.342	5.3722	0.77482	1.1361	175.99	26.107	5.5589e-06	0.0076685
79.047	0.12312	798.35	0.0012526	-118.70	-118.54	2.8783	1.0744	2.0502	834.13	-0.32997	0.00015040	0.14222	0.0084896	5.5211	0.18112	56.116	78.416	5.3699	0.77506	1.1370	176.06	26.046	5.5668e-06	0.0076791
79.148	0.12453	797.88	0.0012533	-118.49	-118.33	2.8809	1.0738	2.0507	833.09	-0.32926	0.00014982	0.14200	0.0084665	5.5797	0.17922	56.171	78.489	5.3677	0.77530	1.1378	176.13	25.986	5.5748e-06	0.0076898
79.250	0.12596	797.41	0.0012541	-118.28	-118.12	2.8835	1.0732	2.0513	832.05	-0.32856	0.00014924	0.14179	0.0084435	5.6388	0.17734	56.225	78.563	5.3654	0.77554	1.1386	176.21	25.926	5.5827e-06	0.0077005
79.352	0.12740	796.94	0.0012548	-118.07	-117.91	2.8861	1.0727	2.0518	831.01	-0.32784	0.00014866	0.14157	0.0084205	5.6984	0.17549	56.279	78.636	5.3631	0.77578	1.1395	176.28	25.866	5.5906e-06	0.0077112
79.453	0.12885	796.47	0.0012555	-117.87	-117.70	2.8888	1.0721	2.0524	829.97	-0.32713	0.00014808	0.14136	0.0083975	5.7584	0.17366	56.333	78.710	5.3608	0.77602	1.1403	176.35	25.806	5.5985e-06	0.0077220
79.555	0.13031	796.00	0.0012563	-117.66	-117.49	2.8914	1.0715	2.0530	828.92	-0.32641	0.00014751	0.14114	0.0083745	5.8189	0.17185	56.387	78.782	5.3586	0.77626	1.1411	176.42	25.747	5.6065e-06	0.0077327
79.657	0.13179	795.53	0.0012570	-117.45	-117.29	2.8940	1.0710	2.0536	827.88	-0.32569	0.00014694	0.14093	0.0083515	5.8799	0.17007	56.441	78.855	5.3563	0.77650	1.1420	176.49	25.688	5.6144e-06	0.0077435
79.758	0.13328	795.06	0.0012578	-117.24	-117.08	2.8966	1.0704	2.0541	826.84	-0.32496	0.00014638	0.14071	0.0083285	5.9414	0.16831	56.495	78.928	5.3541	0.77674	1.1429	176.56	25.629	5.6224e-06	0.0077544
79.860	0.13478	794.59	0.0012585	-117.04	-116.87	2.8992	1.0698	2.0547	825.80	-0.32423	0.00014582	0.14050	0.0083056	6.0033	0.16658	56.549	79.000	5.3518	0.77699	1.1437	176.63	25.570	5.6303e-06	0.0077652
79.962	0.13630	794.12	0.0012593	-116.83	-116.66	2.9018	1.0693	2.0553	824.75	-0.32349	0.00014526	0.14028	0.0082826	6.0657	0.16486	56.602	79.072	5.3496	0.77724	1.1446	176.69	25.512	5.6383e-06	0.0077761
80.063	0.13782	793.64	0.0012600	-116.62	-116.45	2.9044	1.0687	2.0559	823.71	-0.32275	0.00014470	0.14008	0.0082597	6.1286	0.16317	56.655	79.144	5.3473	0.77748	1.1455	176.76	25.454	5.6462e-06	0.0077870
80.165	0.13937	793.17	0.0012608	-116.41	-116.24	2.9070	1.0682	2.0565	822.67	-0.32201	0.00014415	0.13987	0.0082368	6.1920	0.16150	56.708	79.215	5.3451	0.77773	1.1464	176.83	25.396	5.6542e-06	0.0077979
80.267	0.14092	792.70	0.0012615	-116.20	-116.03	2.9096	1.0676	2.0571	821.62	-0.32126	0.00014360	0.13966	0.0082139	6.2559	0.15985	56.761	79.287	5.3429	0.77798	1.1473	176.90	25.338	5.6622e-06	0.0078088
80.368	0.14249	792.22	0.0012623	-116.00	-115.82	2.9122	1.0670	2.0577	820.58	-0.32051	0.00014306	0.13945	0.0081910	6.3203	0.15822	56.814	79.358	5.3407	0.77823	1.1482	176.97	25.281	5.6701e-06	0.0078198
80.470	0.14406	791.75	0.0012630	-115.79	-115.60	2.9148	1.0665	2.0583	819.53	-0.31975	0.00014251	0.13924	0.0081681	6.3852	0.15661	56.867	79.429	5.3385	0.77848	1.1491	177.03	25.224	5.6781e-06	0.0078308
80.572	0.14566	791.27	0.0012638	-115.58	-115.39	2.9174	1.0659	2.0589	818.48	-0.31899	0.00014197	0.13903	0.0081453	6.4506	0.15502	56.919	79.500	5.3363	0.77874	1.1500	177.10	25.167	5.6861e-06	0.0078418
80.673	0.14726	790.80	0.0012645	-115.37	-115.18	2.9200	1.0654	2.0596	817.44	-0.31823	0.00014144	0.13882	0.0081224	6.5165	0.15346	56.972	79.570	5.3341	0.77899	1.1509	177.17	25.111	5.6941e-06	0.0078529
80.775	0.14888	790.32	0.0012653	-115.16	-114.97	2.9225	1.0648	2.0602	816.39	-0.31746	0.00014090	0.13861	0.0080996	6.5829	0.15191	57.024	79.641	5.3319	0.77925	1.1518	177.23	25.055	5.7021e-06	0.0078640
80.877	0.15052	789.85	0.0012661	-114.95	-114.76	2.9251	1.0643	2.0608	815.34	-0.31669	0.00014037	0.13840	0.0080768	6.6498	0.15038	57.076	79.711	5.3297	0.77950	1.1527	177.30	24.999	5.7101e-06	0.0078751
80.978	0.15216	789.37	0.0012668	-114.75	-114.55	2.9277	1.0637	2.0614	814.29	-0.31591	0.00013984	0.13819	0.0080540	6.7172	0.14887	57.128	79.780	5.3275	0.77976	1.1537	177.36	24.943	5.7181e-06	0.0078862
81.080	0.15382	788.89	0.0012676	-114.54	-114.34	2.9303	1.0632	2.0621	813.25	-0.31513	0.00013932	0.13798	0.0080312	6.7852	0.14738	57.180	79.850	5.3253	0.78002	1.1546	177.43	24.887	5.7262e-06	0.0078973
81.182	0.15549	788.42	0.0012684	-114.33	-114.13	2.9328	1.0626	2.0627	812.20	-0.31434	0.00013880	0.13777	0.0080084	6.8536	0.14591	57.231	79.919	5.3232	0.78028	1.1555	177.49	24.832	5.7342e-06	0.0079085
81.283	0.15718	787.94	0.0012691	-114.12	-113.92	2.9354	1.0621	2.0634	811.15	-0.31355	0.00013828	0.13756	0.0079856	6.9226	0.14445	57.283	79.989	5.3210	0.78054	1.1565	177.56	24.777	5.7422e-06	0.0079198
81.385	0.15888	787.46	0.0012699	-113.91	-113.71	2.9380	1.0615	2.0640	810.10	-0.31276	0.00013776	0.13735	0.0079629	6.9921	0.14302	57.334	80.058	5.3188	0.78080	1.1574	177.62	24.723	5.7503e-06	0.0079310
81.487	0.16060	786.98	0.0012707	-113.70	-113.50	2.9405	1.0610	2.0647	809.05	-0.31196	0.00013725	0.13714	0.0079401	7.0621	0.14160	57.385	80.126	5.3167	0.78107	1.1584	177.69	24.668	5.7583e-06	0.0079423
81.588	0.16233	786.50	0.0012715	-113.49	-113.29	2.9431	1.0604	2.0654	808.00	-0.31115	0.00013674	0.13693	0.0079174	7.1326	0.14020	57.437	80.195	5.3145	0.78133	1.1594	177.75	24.614	5.7664e-06	0.0079536
81.690	0.16407	786.02	0.0012722	-113.28	-113.08	2.9457	1.0599	2.0660	806.95	-0.31034	0.00013623	0.13672	0.0078947	7.2037	0.13882	57.487	80.263	5.3124	0.78160	1.1603	177.81	24.560	5.7744e-06	0.0079649
81.792	0.16582	785.54	0.0012730	-113.08	-112.86	2.9482	1.0594	2.0667	805.90	-0.30953	0.00013573	0.13651	0.0078720	7.2753	0.13745	57.538	80.331	5.3103	0.78186	1.1613	177.88	24.506	5.7825e-06	0.0079763
81.893	0.16759	785.06	0.0012738	-112.87	-112.65	2.9508	1.0588	2.0674	804.84	-0.30871	0.00013522	0.13630	0.0078493	7.3474	0.13610	57.589	80.399	5.3081	0.78213	1.1623	177.94	24.452	5.7906e-06	0.0079877
81.995	0.16938	784.58	0.0012746	-112.66	-112.44	2.9533	1.0583	2.0681	803.79	-0.30789	0.00013473	0.13609	0.0078266	7.4201	0.13477	57.639	80.466	5.3060	0.78240	1.1633	178.00	24.399	5.7986e-06	0.0079991
82.097	0.17118	784.10	0.0012754	-112.45	-112.23	2.9559	1.0577	2.0687	802.74	-0.30706	0.00013423	0.13588	0.0078040	7.4933	0.13345	57.689	80.533	5.3039	0.78267	1.1643	178.06	24.346	5.8067e-06	0.0080105
82.198	0.17299	783.62	0.0012761	-112.24	-112.02	2.9584	1.0572	2.0694	801.68	-0.30623	0.00013373	0.13567	0.0077813	7.5671	0.13215	57.739	80.601	5.3018	0.78294	1.1653	178.12	24.293	5.8148e-06	0.0080220
82.300	0.17482	783.13	0.0012769	-112.03	-111.81	2.9610	1.0567	2.0701	800.63	-0.30540	0.00013324	0.13546	0.0077587	7.6414	0.13087	57.789	80.667	5.2997	0.78322	1.1663	178.19	24.241	5.8229e-06	0.0080335
82.402	0.17666	782.65	0.0012777	-111.82	-111.60	2.9635	1.0561	2.0708	799.58	-0.30456	0.00013275	0.13525	0.0077361	7.7162	0.12960	57.839	80.734	5.2976	0.78349	1.1673	178.25	24.188	5.8310e-06	0.0080451
82.503	0.17852	782.17	0.0012785	-111.61	-111.38	2.9660	1.0556	2.0715	798.52	-0.30371	0.00013227	0.13504	0.0077135	7.7916	0.12834	57.889	80.800	5.2955	0.78377	1.1684	178.31	24.136	5.8391e-06	0.0080567
82.605	0.18039	781.68	0.0012793	-111.40	-111.17	2.9686	1.0551	2.0723	797.47	-0.30286	0.00013179	0.13483	0.0076909	7.8676	0.12710	57.938	80.866	5.2934	0.78405	1.1694	178.37	24.084	5.8472e-06	0.0080683
82.707	0.18227	781.20	0.0012801	-111.19	-110.96	2.9711	1.0545	2.0730	796.41	-0.30200	0.00013131	0.13462	0.0076683	7.9441	0.12588	57.988	80.932	5.2913	0.78432	1.1704	178.43	24.032	5.8553e-06	0.0080799
82.808	0.18418	780.71	0.0012809	-110.98	-110.75	2.9736	1.0540	2.0737	795.35	-0.30114	0.00013083	0.13441	0.0076457	8.0212	0.12467	58.037	80.998	5.2892	0.78460	1.1715	178.49	23.981	5.8635e-06	0.0080916
82.910	0.18609	780.23	0.0012817	-110.78	-110.54	2.9762	1.0535	2.0744	794.30	-0.30028	0.00013035	0.13420	0.0076232	8.0988	0.12348	58.086	81.063	5.2871	0.78488	1.1725	178.54	23.930	5.8716e-06	0.0081033
83.012	0.18802	779.74	0.0012825	-110.57	-110.32	2.9787	1.0530	2.0752	793.24	-0.29941	0.00012988	0.13400	0.0076007	8.1770	0.12229	58.135	81.128	5.2850	0.78517	1.1736	178.60	23.879	5.8798e-06	0.0081150
83.113	0.18997	779.25	0.0012833	-110.36	-110.11	2.9812	1.0524	2.0759	792.18	-0.29853	0.00012941	0.13379	0.0075781	8.2558	0.12113	58.183	81.193	5.2830	0.78545	1.1746	178.66	23.828	5.8879e-06	0.0081268
83.215	0.19193	778.77	0.0012841	-110.15	-109.90	2.9837	1.0519	2.0766	791.12	-0.29765	0.00012894	0.13358	0.0075556	8.3351	0.11997	58.232	81.258	5.2809	0.78573	1.1757	178.72	23.777	5.8961e-06	0.0081386
83.317	0.19390	778.28	0.0012849	-109.94	-109.69	2.9863	1.0514	2.0774	790.06	-0.29677	0.00012847	0.13337	0.0075331	8.4150	0.11884	58.280	81.322	5.2788	0.78602	1.1768	178.78	23.727	5.9042e-06	0.0081505
83.418	0.19589	777.79	0.0012857	-109.73	-109.48	2.9888	1.0509	2.0782	789.00	-0.29588	0.00012801	0.13316	0.0075106	8.4955	0.11771	58.328	81.387	5.2768	0.78631	1.1779	178.83	23.677	5.9124e-06	0.0081623
83.520	0.19790	777.30	0.0012865	-109.52	-109.26	2.9913	1.0503	2.0789	787.94	-0.29498	0.00012755	0.13295	0.0074882	8.5766	0.11660	58.376	81.450	5.2747	0.78660	1.1790	178.89	23.627	5.9206e-06	0.0081743
83.622	0.19992	776.81	0.0012873	-109.31	-109.05	2.9938	1.0498	2.0797	786.88	-0.29408	0.00012709	0.13274	0.0074657	8.6582	0.11550	58.424	81.514	5.2727	0.78688	1.1801	178.95	23.577	5.9288e-06	0.0081862
83.723	0.20195	776.33	0.0012881	-109.10	-108.84	2.9963	1.0493	2.0805	785.82	-0.29317	0.00012664	0.13254	0.0074433	8.7405	0.11441	58.472	81.577	5.2707	0.78718	1.1812	179.00	23.527	5.9370e-06	0.0081982
83.825	0.20401	775.84	0.0012889	-108.89	-108.62	2.9988	1.0488	2.0812	784.76	-0.29226	0.00012618	0.13233	0.0074208	8.8233	0.11334	58.519	81.641	5.2686	0.78747	1.1823	179.06	23.478	5.9452e-06	0.0082102
83.927	0.20607	775.34	0.0012897	-108.68	-108.41	3.0013	1.0483	2.0820	783.69	-0.29135	0.00012573	0.13212	0.0073984	8.9067	0.11228	58.567	81.704	5.2666	0.78776	1.1834	179.12	23.429	5.9534e-06	0.0082222
84.028	0.20816	774.85	0.0012906	-108.47	-108.20	3.0038	1.0478	2.0828	782.63	-0.29043	0.00012529	0.13191	0.0073760	8.9907	0.11123	58.614	81.766	5.2646	0.78806	1.1845	179.17	23.380	5.9616e-06	0.0082343
84.130	0.21025	774.36	0.0012914	-108.26	-107.99	3.0063	1.0472	2.0836	781.57	-0.28950	0.00012484	0.13170	0.0073537	9.0753	0.11019	58.661	81.829	5.2625	0.78835	1.1857	179.23	23.331	5.9698e-06	0.0082465
84.232	0.21237	773.87	0.0012922	-108.05	-107.77	3.0088	1.0467	2.0844	780.50	-0.28857	0.00012440	0.13150	0.0073313	9.1605	0.10916	58.708	81.891	5.2605	0.78865	1.1868	179.28	23.283	5.9780e-06	0.0082586
84.333	0.21450	773.38	0.0012930	-107.84	-107.56	3.0113	1.0462	2.0852	779.44	-0.28763	0.00012395	0.13129	0.0073089	9.2463	0.10815	58.754	81.953	5.2585	0.78895	1.1880	179.33	23.234	5.9863e-06	0.0082708
84.435	0.21665	772.88	0.0012939	-107.63	-107.35	3.0138	1.0457	2.0860	778.37	-0.28669	0.00012351	0.13108	0.0072866	9.3327	0.10715	58.801	82.014	5.2565	0.78925	1.1891	179.39	23.186	5.9945e-06	0.0082831
84.537	0.21881	772.39	0.0012947	-107.42	-107.13	3.0163	1.0452	2.0868	777.31	-0.28574	0.00012308	0.13087	0.0072643	9.4198	0.10616	58.847	82.076	5.2545	0.78955	1.1903	179.44	23.138	6.0028e-06	0.0082953
84.638	0.22098	771.90	0.0012955	-107.21	-106.92	3.0188	1.0447	2.0877	776.24	-0.28478	0.00012264	0.13067	0.0072419	9.5074	0.10518	58.893	82.137	5.2525	0.78985	1.1915	179.49	23.091	6.0110e-06	0.0083076
84.740	0.22318	771.40	0.0012963	-106.99	-106.71	3.0213	1.0442	2.0885	775.17	-0.28383	0.00012221	0.13046	0.0072196	9.5956	0.10421	58.939	82.198	5.2505	0.79016	1.1927	179.55	23.043	6.0193e-06	0.0083200
84.842	0.22539	770.91	0.0012972	-106.78	-106.49	3.0238	1.0437	2.0893	774.10	-0.28286	0.00012178	0.13025	0.0071974	9.6845	0.10326	58.985	82.258	5.2485	0.79046	1.1938	179.60	22.996	6.0276e-06	0.0083324
84.943	0.22762	770.41	0.0012980	-106.57	-106.28	3.0263	1.0432	2.0902	773.03	-0.28189	0.00012135	0.13005	0.0071751	9.7740	0.10231	59.031	82.319	5.2465	0.79077	1.1950	179.65	22.949	6.0359e-06	0.0083448
85.045	0.22986	769.91	0.0012988	-106.36	-106.06	3.0288	1.0427	2.0910	771.97	-0.28091	0.00012093	0.12984	0.0071528	9.8641	0.10138	59.076	82.379	5.2446	0.79108	1.1962	179.70	22.902	6.0442e-06	0.0083573
85.147	0.23212	769.42	0.0012997	-106.15	-105.85	3.0312	1.0422	2.0919	770.90	-0.27993	0.00012050	0.12963	0.0071306	9.9548	0.10045	59.121	82.438	5.2426	0.79139	1.1975	179.75	22.855	6.0525e-06	0.0083698
85.248	0.23439	768.92	0.0013005	-105.94	-105.64	3.0337	1.0417	2.0927	769.83	-0.27894	0.00012008	0.12943	0.0071084	10.046	0.099540	59.167	82.498	5.2406	0.79170	1.1987	179.81	22.808	6.0608e-06	0.0083824
85.350	0.23669	768.42	0.0013014	-105.73	-105.42	3.0362	1.0412	2.0936	768.75	-0.27795	0.00011966	0.12922	0.0070861	10.138	0.098637	59.211	82.557	5.2386	0.79201	1.1999	179.86	22.762	6.0691e-06	0.0083949
85.452	0.23899	767.92	0.0013022	-105.52	-105.21	3.0387	1.0407	2.0945	767.68	-0.27695	0.00011924	0.12901	0.0070639	10.231	0.097744	59.256	82.616	5.2367	0.79232	1.2011	179.91	22.716	6.0774e-06	0.0084076
85.553	0.24132	767.43	0.0013031	-105.31	-104.99	3.0411	1.0402	2.0954	766.61	-0.27595	0.00011883	0.12881	0.0070417	10.324	0.096860	59.301	82.675	5.2347	0.79264	1.2024	179.96	22.670	6.0857e-06	0.0084202
85.655	0.24366	766.93	0.0013039	-105.10	-104.78	3.0436	1.0397	2.0962	765.54	-0.27494	0.00011842	0.12860	0.0070196	10.418	0.095987	59.345	82.734	5.2328	0.79295	1.2036	180.01	22.624	6.0941e-06	0.0084330
85.757	0.24602	766.43	0.0013048	-104.89	-104.56	3.0461	1.0392	2.0971	764.46	-0.27392	0.00011801	0.12839	0.0069974	10.513	0.095124	59.389	82.792	5.2308	0.79327	1.2049	180.05	22.578	6.1024e-06	0.0084457
85.858	0.24840	765.92	0.0013056	-104.67	-104.35	3.0485	1.0387	2.0980	763.39	-0.27290	0.00011760	0.12819	0.0069753	10.608	0.094270	59.433	82.850	5.2289	0.79359	1.2062	180.10	22.533	6.1108e-06	0.0084585
85.960	0.25079	765.42	0.0013065	-104.46	-104.13	3.0510	1.0382	2.0989	762.31	-0.27187	0.00011719	0.12798	0.0069531	10.704	0.093426	59.477	82.907	5.2269	0.79391	1.2074	180.15	22.488	6.1192e-06	0.0084714
86.062	0.25320	764.92	0.0013073	-104.25	-103.92	3.0535	1.0377	2.0998	761.24	-0.27083	0.00011679	0.12778	0.0069310	10.800	0.092591	59.521	82.965	5.2250	0.79423	1.2087	180.20	22.443	6.1275e-06	0.0084842
86.163	0.25563	764.42	0.0013082	-104.04	-103.71	3.0559	1.0372	2.1008	760.16	-0.26979	0.00011638	0.12757	0.0069089	10.897	0.091765	59.564	83.022	5.2231	0.79456	1.2100	180.25	22.398	6.1359e-06	0.0084972
86.265	0.25807	763.92	0.0013090	-103.83	-103.49	3.0584	1.0367	2.1017	759.08	-0.26875	0.00011598	0.12737	0.0068868	10.995	0.090948	59.608	83.079	5.2211	0.79488	1.2113	180.30	22.353	6.1443e-06	0.0085102
86.367	0.26053	763.41	0.0013099	-103.62	-103.28	3.0608	1.0362	2.1026	758.01	-0.26769	0.00011558	0.12716	0.0068648	11.094	0.090141	59.651	83.136	5.2192	0.79521	1.2126	180.34	22.308	6.1527e-06	0.0085232
86.468	0.26301	762.91	0.0013108	-103.40	-103.06	3.0633	1.0357	2.1036	756.93	-0.26664	0.00011519	0.12696	0.0068427	11.193	0.089342	59.694	83.192	5.2173	0.79554	1.2139	180.39	22.264	6.1611e-06	0.0085362
86.570	0.26551	762.40	0.0013116	-103.19	-102.84	3.0657	1.0353	2.1045	755.85	-0.26557	0.00011479	0.12675	0.0068207	11.293	0.088552	59.737	83.248	5.2154	0.79586	1.2153	180.44	22.220	6.1695e-06	0.0085493
86.672	0.26802	761.90	0.0013125	-102.98	-102.63	3.0682	1.0348	2.1055	754.77	-0.26450	0.00011440	0.12654	0.0067987	11.393	0.087771	59.779	83.304	5.2134	0.79620	1.2166	180.48	22.176	6.1780e-06	0.0085625
86.773	0.27055	761.39	0.0013134	-102.77	-102.41	3.0706	1.0343	2.1064	753.69	-0.26342	0.00011401	0.12634	0.0067766	11.495	0.086998	59.822	83.359	5.2115	0.79653	1.2179	180.53	22.132	6.1864e-06	0.0085757
86.875	0.27310	760.89	0.0013143	-102.56	-102.20	3.0731	1.0338	2.1074	752.61	-0.26234	0.00011362	0.12613	0.0067546	11.596	0.086234	59.864	83.414	5.2096	0.79686	1.2193	180.57	22.088	6.1948e-06	0.0085889
86.977	0.27567	760.38	0.0013151	-102.34	-101.98	3.0755	1.0333	2.1083	751.53	-0.26125	0.00011323	0.12593	0.0067327	11.699	0.085478	59.906	83.469	5.2077	0.79720	1.2207	180.62	22.045	6.2033e-06	0.0086022
87.078	0.27825	759.87	0.0013160	-102.13	-101.77	3.0780	1.0329	2.1093	750.44	-0.26015	0.00011285	0.12573	0.0067107	11.802	0.084730	59.948	83.524	5.2058	0.79753	1.2220	180.66	22.001	6.2118e-06	0.0086156
87.180	0.28086	759.36	0.0013169	-101.92	-101.55	3.0804	1.0324	2.1103	749.36	-0.25904	0.00011246	0.12552	0.0066887	11.906	0.083990	59.989	83.578	5.2039	0.79787	1.2234	180.71	21.958	6.2202e-06	0.0086290
87.282	0.28348	758.86	0.0013178	-101.71	-101.33	3.0828	1.0319	2.1113	748.28	-0.25793	0.00011208	0.12532	0.0066668	12.011	0.083258	60.031	83.632	5.2020	0.79821	1.2248	180.75	21.915	6.2287e-06	0.0086424
87.383	0.28611	758.35	0.0013187	-101.50	-101.12	3.0853	1.0314	2.1123	747.19	-0.25682	0.00011170	0.12511	0.0066449	12.116	0.082534	60.072	83.686	5.2001	0.79855	1.2262	180.79	21.872	6.2372e-06	0.0086559
87.485	0.28877	757.84	0.0013195	-101.28	-100.90	3.0877	1.0310	2.1133	746.11	-0.25569	0.00011132	0.12491	0.0066230	12.222	0.081818	60.113	83.740	5.1983	0.79889	1.2276	180.84	21.830	6.2457e-06	0.0086694
87.587	0.29145	757.33	0.0013204	-101.07	-100.69	3.0901	1.0305	2.1143	745.02	-0.25456	0.00011095	0.12470	0.0066011	12.329	0.081110	60.154	83.793	5.1964	0.79923	1.2290	180.88	21.787	6.2542e-06	0.0086830
87.688	0.29414	756.81	0.0013213	-100.86	-100.47	3.0926	1.0300	2.1154	743.93	-0.25343	0.00011057	0.12450	0.0065792	12.436	0.080409	60.194	83.846	5.1945	0.79958	1.2304	180.92	21.745	6.2627e-06	0.0086966
87.790	0.29685	756.30	0.0013222	-100.65	-100.25	3.0950	1.0295	2.1164	742.85	-0.25228	0.00011020	0.12430	0.0065573	12.545	0.079716	60.235	83.899	5.1926	0.79993	1.2319	180.96	21.703	6.2713e-06	0.0087103
87.892	0.29958	755.79	0.0013231	-100.43	-100.04	3.0974	1.0291	2.1174	741.76	-0.25113	0.00010983	0.12409	0.0065355	12.653	0.079030	60.275	83.951	5.1908	0.80027	1.2333	181.00	21.660	6.2798e-06	0.0087240
87.993	0.30233	755.28	0.0013240	-100.22	-99.819	3.0998	1.0286	2.1185	740.67	-0.24997	0.00010946	0.12389	0.0065137	12.763	0.078351	60.315	84.003	5.1889	0.80062	1.2348	181.05	21.619	6.2884e-06	0.0087378
88.095	0.30509	754.76	0.0013249	-100.01	-99.603	3.1023	1.0281	2.1195	739.58	-0.24881	0.00010910	0.12368	0.0064918	12.873	0.077679	60.355	84.055	5.1870	0.80098	1.2362	181.09	21.577	6.2969e-06	0.0087517
88.197	0.30788	754.25	0.0013258	-99.794	-99.386	3.1047	1.0277	2.1206	738.49	-0.24764	0.00010873	0.12348	0.0064700	12.984	0.077015	60.395	84.106	5.1852	0.80133	1.2377	181.13	21.535	6.3055e-06	0.0087656
88.298	0.31068	753.73	0.0013267	-99.581	-99.168	3.1071	1.0272	2.1217	737.40	-0.24646	0.00010837	0.12328	0.0064482	13.096	0.076358	60.434	84.157	5.1833	0.80168	1.2392	181.17	21.494	6.3141e-06	0.0087795
88.400	0.31351	753.22	0.0013276	-99.367	-98.951	3.1095	1.0267	2.1227	736.30	-0.24527	0.00010801	0.12307	0.0064265	13.209	0.075707	60.474	84.208	5.1815	0.80204	1.2407	181.21	21.453	6.3227e-06	0.0087935
88.502	0.31635	752.70	0.0013285	-99.154	-98.734	3.1119	1.0263	2.1238	735.21	-0.24408	0.00010765	0.12287	0.0064047	13.322	0.075064	60.513	84.259	5.1796	0.80240	1.2422	181.25	21.411	6.3313e-06	0.0088075
88.603	0.31921	752.19	0.0013295	-98.941	-98.516	3.1143	1.0258	2.1249	734.12	-0.24288	0.00010729	0.12267	0.0063830	13.436	0.074427	60.552	84.309	5.1778	0.80275	1.2437	181.28	21.370	6.3399e-06	0.0088216
88.705	0.32209	751.67	0.0013304	-98.727	-98.299	3.1168	1.0254	2.1260	733.02	-0.24167	0.00010693	0.12246	0.0063612	13.551	0.073797	60.590	84.359	5.1759	0.80312	1.2452	181.32	21.330	6.3485e-06	0.0088358
88.807	0.32499	751.15	0.0013313	-98.514	-98.081	3.1192	1.0249	2.1271	731.93	-0.24046	0.00010658	0.12226	0.0063395	13.666	0.073173	60.629	84.409	5.1741	0.80348	1.2467	181.36	21.289	6.3571e-06	0.0088500
88.908	0.32790	750.63	0.0013322	-98.300	-97.863	3.1216	1.0245	2.1282	730.83	-0.23924	0.00010622	0.12206	0.0063178	13.783	0.072556	60.667	84.458	5.1722	0.80384	1.2483	181.40	21.248	6.3658e-06	0.0088643
89.010	0.33084	750.11	0.0013331	-98.086	-97.645	3.1240	1.0240	2.1294	729.73	-0.23801	0.00010587	0.12186	0.0062961	13.900	0.071945	60.705	84.508	5.1704	0.80421	1.2498	181.44	21.208	6.3744e-06	0.0088786
89.112	0.33380	749.59	0.0013341	-97.873	-97.427	3.1264	1.0235	2.1305	728.64	-0.23677	0.00010552	0.12165	0.0062745	14.017	0.071341	60.743	84.556	5.1686	0.80457	1.2514	181.47	21.168	6.3831e-06	0.0088930
89.213	0.33677	749.07	0.0013350	-97.659	-97.209	3.1288	1.0231	2.1316	727.54	-0.23553	0.00010517	0.12145	0.0062528	14.136	0.070742	60.781	84.605	5.1668	0.80494	1.2530	181.51	21.128	6.3917e-06	0.0089074
89.315	0.33977	748.55	0.0013359	-97.445	-96.991	3.1312	1.0226	2.1328	726.44	-0.23427	0.00010482	0.12125	0.0062312	14.255	0.070151	60.818	84.653	5.1649	0.80531	1.2546	181.55	21.088	6.4004e-06	0.0089219
89.417	0.34278	748.03	0.0013368	-97.231	-96.773	3.1336	1.0222	2.1339	725.34	-0.23302	0.00010448	0.12105	0.0062096	14.375	0.069565	60.856	84.701	5.1631	0.80568	1.2561	181.58	21.048	6.4091e-06	0.0089364
89.518	0.34582	747.51	0.0013378	-97.017	-96.554	3.1360	1.0217	2.1351	724.24	-0.23175	0.00010414	0.12084	0.0061880	14.496	0.068985	60.893	84.749	5.1613	0.80606	1.2578	181.62	21.008	6.4178e-06	0.0089510
89.620	0.34887	746.98	0.0013387	-96.802	-96.335	3.1384	1.0213	2.1363	723.13	-0.23047	0.00010379	0.12064	0.0061664	14.618	0.068411	60.929	84.796	5.1595	0.80643	1.2594	181.66	20.969	6.4265e-06	0.0089657
89.722	0.35194	746.46	0.0013397	-96.588	-96.117	3.1408	1.0208	2.1375	722.03	-0.22919	0.00010345	0.12044	0.0061448	14.740	0.067843	60.966	84.843	5.1577	0.80681	1.2610	181.69	20.930	6.4353e-06	0.0089804
89.823	0.35504	745.94	0.0013406	-96.374	-95.898	3.1432	1.0204	2.1386	720.93	-0.22790	0.00010311	0.12024	0.0061232	14.863	0.067281	61.003	84.890	5.1559	0.80719	1.2626	181.72	20.890	6.4440e-06	0.0089952
89.925	0.35815	745.41	0.0013415	-96.159	-95.679	3.1456	1.0200	2.1398	719.82	-0.22660	0.00010278	0.12004	0.0061017	14.987	0.066724	61.039	84.936	5.1541	0.80756	1.2643	181.76	20.851	6.4527e-06	0.0090101
90.027	0.36128	744.89	0.0013425	-95.945	-95.460	3.1479	1.0195	2.1411	718.72	-0.22529	0.00010244	0.11983	0.0060802	15.112	0.066173	61.075	84.982	5.1523	0.80795	1.2659	181.79	20.812	6.4615e-06	0.0090250
90.128	0.36443	744.36	0.0013434	-95.730	-95.240	3.1503	1.0191	2.1423	717.61	-0.22398	0.00010211	0.11963	0.0060587	15.237	0.065628	61.111	85.028	5.1505	0.80833	1.2676	181.83	20.774	6.4703e-06	0.0090399
90.230	0.36761	743.83	0.0013444	-95.515	-95.021	3.1527	1.0186	2.1435	716.51	-0.22266	0.00010177	0.11943	0.0060372	15.364	0.065088	61.146	85.073	5.1487	0.80871	1.2693	181.86	20.735	6.4791e-06	0.0090550
90.332	0.37080	743.30	0.0013453	-95.300	-94.801	3.1551	1.0182	2.1447	715.40	-0.22133	0.00010144	0.11923	0.0060157	15.491	0.064554	61.182	85.118	5.1469	0.80910	1.2710	181.89	20.696	6.4878e-06	0.0090700
90.433	0.37402	742.78	0.0013463	-95.085	-94.582	3.1575	1.0178	2.1460	714.29	-0.21999	0.00010111	0.11903	0.0059942	15.619	0.064025	61.217	85.163	5.1451	0.80949	1.2727	181.92	20.658	6.4967e-06	0.0090852
90.535	0.37725	742.25	0.0013473	-94.870	-94.362	3.1599	1.0173	2.1472	713.18	-0.21864	0.00010078	0.11883	0.0059728	15.748	0.063501	61.252	85.207	5.1433	0.80988	1.2744	181.96	20.620	6.5055e-06	0.0091004
90.637	0.38050	741.72	0.0013482	-94.655	-94.142	3.1622	1.0169	2.1485	712.07	-0.21728	0.00010046	0.11863	0.0059513	15.877	0.062983	61.286	85.252	5.1415	0.81027	1.2761	181.99	20.581	6.5143e-06	0.0091157
90.738	0.38378	741.19	0.0013492	-94.440	-93.922	3.1646	1.0165	2.1498	710.96	-0.21592	0.00010013	0.11843	0.0059299	16.008	0.062470	61.321	85.295	5.1397	0.81066	1.2779	182.02	20.543	6.5231e-06	0.0091310
90.840	0.38707	740.65	0.0013502	-94.225	-93.702	3.1670	1.0160	2.1511	709.85	-0.21455	9.9805e-05	0.11823	0.0059085	16.139	0.061962	61.355	85.339	5.1379	0.81106	1.2796	182.05	20.506	6.5320e-06	0.0091465
90.942	0.39039	740.12	0.0013511	-94.009	-93.482	3.1694	1.0156	2.1523	708.73	-0.21317	9.9483e-05	0.11802	0.0058871	16.271	0.061459	61.389	85.382	5.1362	0.81145	1.2814	182.08	20.468	6.5409e-06	0.0091619
91.043	0.39373	739.59	0.0013521	-93.794	-93.261	3.1717	1.0152	2.1536	707.62	-0.21178	9.9161e-05	0.11782	0.0058658	16.404	0.060961	61.423	85.425	5.1344	0.81185	1.2832	182.11	20.430	6.5497e-06	0.0091775
91.145	0.39709	739.06	0.0013531	-93.578	-93.041	3.1741	1.0147	2.1550	706.50	-0.21038	9.8841e-05	0.11762	0.0058444	16.538	0.060468	61.457	85.468	5.1326	0.81225	1.2850	182.14	20.393	6.5586e-06	0.0091931
91.247	0.40046	738.52	0.0013541	-93.362	-92.820	3.1765	1.0143	2.1563	705.39	-0.20897	9.8523e-05	0.11742	0.0058231	16.672	0.059980	61.490	85.510	5.1309	0.81265	1.2868	182.17	20.355	6.5675e-06	0.0092088
91.348	0.40386	737.99	0.0013550	-93.147	-92.599	3.1788	1.0139	2.1576	704.27	-0.20756	9.8206e-05	0.11722	0.0058018	16.808	0.059496	61.523	85.552	5.1291	0.81306	1.2886	182.20	20.318	6.5764e-06	0.0092245
91.450	0.40729	737.45	0.0013560	-92.931	-92.378	3.1812	1.0135	2.1589	703.15	-0.20613	9.7890e-05	0.11702	0.0057805	16.944	0.059018	61.556	85.593	5.1273	0.81346	1.2904	182.23	20.281	6.5854e-06	0.0092403
91.552	0.41073	736.91	0.0013570	-92.715	-92.157	3.1836	1.0130	2.1603	702.03	-0.20470	9.7576e-05	0.11682	0.0057592	17.081	0.058544	61.589	85.634	5.1256	0.81387	1.2922	182.26	20.244	6.5943e-06	0.0092562
91.653	0.41419	736.38	0.0013580	-92.499	-91.936	3.1859	1.0126	2.1617	700.91	-0.20326	9.7263e-05	0.11662	0.0057379	17.219	0.058075	61.621	85.675	5.1238	0.81428	1.2941	182.28	20.207	6.6033e-06	0.0092722
91.755	0.41767	735.84	0.0013590	-92.282	-91.715	3.1883	1.0122	2.1630	699.79	-0.20180	9.6951e-05	0.11642	0.0057166	17.358	0.057610	61.654	85.716	5.1220	0.81469	1.2959	182.31	20.170	6.6122e-06	0.0092882
91.857	0.42118	735.30	0.0013600	-92.066	-91.493	3.1907	1.0118	2.1644	698.67	-0.20034	9.6641e-05	0.11622	0.0056954	17.498	0.057150	61.686	85.756	5.1203	0.81510	1.2978	182.34	20.134	6.6212e-06	0.0093043
91.958	0.42471	734.76	0.0013610	-91.850	-91.272	3.1930	1.0114	2.1658	697.55	-0.19887	9.6332e-05	0.11602	0.0056742	17.638	0.056694	61.718	85.796	5.1185	0.81551	1.2997	182.37	20.097	6.6302e-06	0.0093205
92.060	0.42826	734.22	0.0013620	-91.633	-91.050	3.1954	1.0110	2.1672	696.43	-0.19739	9.6024e-05	0.11582	0.0056530	17.780	0.056243	61.749	85.836	5.1168	0.81593	1.3016	182.39	20.061	6.6392e-06	0.0093367
92.162	0.43183	733.68	0.0013630	-91.416	-90.828	3.1977	1.0105	2.1686	695.30	-0.19590	9.5718e-05	0.11562	0.0056318	17.922	0.055796	61.780	85.875	5.1151	0.81635	1.3035	182.42	20.025	6.6482e-06	0.0093530
92.263	0.43542	733.14	0.0013640	-91.200	-90.606	3.2001	1.0101	2.1700	694.18	-0.19441	9.5412e-05	0.11542	0.0056106	18.066	0.055354	61.812	85.914	5.1133	0.81677	1.3055	182.44	19.988	6.6572e-06	0.0093694
92.365	0.43903	732.60	0.0013650	-90.983	-90.384	3.2024	1.0097	2.1715	693.05	-0.19290	9.5109e-05	0.11522	0.0055894	18.210	0.054916	61.843	85.952	5.1116	0.81719	1.3074	182.47	19.952	6.6663e-06	0.0093859
92.467	0.44267	732.05	0.0013660	-90.766	-90.161	3.2048	1.0093	2.1729	691.92	-0.19138	9.4806e-05	0.11502	0.0055683	18.355	0.054482	61.873	85.990	5.1098	0.81761	1.3093	182.49	19.917	6.6753e-06	0.0094024
92.568	0.44632	731.51	0.0013670	-90.549	-89.939	3.2072	1.0089	2.1744	690.80	-0.18985	9.4505e-05	0.11483	0.0055472	18.501	0.054052	61.904	86.028	5.1081	0.81804	1.3113	182.52	19.881	6.6844e-06	0.0094190
92.670	0.45000	730.97	0.0013681	-90.332	-89.716	3.2095	1.0085	2.1758	689.67	-0.18832	9.4205e-05	0.11463	0.0055261	18.648	0.053626	61.934	86.066	5.1064	0.81846	1.3133	182.54	19.845	6.6935e-06	0.0094357
92.772	0.45370	730.42	0.0013691	-90.114	-89.493	3.2119	1.0081	2.1773	688.54	-0.18677	9.3906e-05	0.11443	0.0055050	18.795	0.053205	61.964	86.103	5.1046	0.81889	1.3153	182.57	19.809	6.7026e-06	0.0094525
92.873	0.45743	729.87	0.0013701	-89.897	-89.270	3.2142	1.0077	2.1788	687.40	-0.18521	9.3609e-05	0.11423	0.0054839	18.944	0.052787	61.993	86.140	5.1029	0.81932	1.3173	182.59	19.774	6.7117e-06	0.0094693
92.975	0.46117	729.33	0.0013711	-89.680	-89.047	3.2165	1.0073	2.1803	686.27	-0.18365	9.3313e-05	0.11403	0.0054628	19.094	0.052373	62.023	86.176	5.1012	0.81976	1.3193	182.61	19.739	6.7208e-06	0.0094862
93.077	0.46494	728.78	0.0013722	-89.462	-88.824	3.2189	1.0069	2.1818	685.14	-0.18207	9.3018e-05	0.11383	0.0054418	19.244	0.051964	62.052	86.212	5.0994	0.82019	1.3214	182.63	19.703	6.7300e-06	0.0095032
93.178	0.46873	728.23	0.0013732	-89.244	-88.601	3.2212	1.0065	2.1833	684.01	-0.18049	9.2724e-05	0.11363	0.0054208	19.396	0.051558	62.081	86.248	5.0977	0.82063	1.3234	182.66	19.668	6.7391e-06	0.0095203
93.280	0.47254	727.68	0.0013742	-89.026	-88.377	3.2236	1.0061	2.1848	682.87	-0.17889	9.2431e-05	0.11343	0.0053998	19.548	0.051156	62.110	86.284	5.0960	0.82106	1.3255	182.68	19.633	6.7483e-06	0.0095375
93.382	0.47638	727.13	0.0013753	-88.808	-88.153	3.2259	1.0057	2.1864	681.73	-0.17728	9.2140e-05	0.11324	0.0053788	19.701	0.050758	62.138	86.319	5.0943	0.82150	1.3276	182.70	19.598	6.7574e-06	0.0095547
93.483	0.48024	726.58	0.0013763	-88.590	-87.929	3.2283	1.0053	2.1879	680.60	-0.17566	9.1850e-05	0.11304	0.0053578	19.856	0.050364	62.167	86.353	5.0926	0.82195	1.3297	182.72	19.564	6.7666e-06	0.0095721
93.585	0.48412	726.03	0.0013774	-88.372	-87.705	3.2306	1.0049	2.1895	679.46	-0.17404	9.1561e-05	0.11284	0.0053368	20.011	0.049973	62.195	86.388	5.0909	0.82239	1.3318	182.74	19.529	6.7759e-06	0.0095895
93.687	0.48802	725.48	0.0013784	-88.154	-87.481	3.2329	1.0045	2.1911	678.32	-0.17240	9.1273e-05	0.11264	0.0053159	20.167	0.049586	62.223	86.422	5.0891	0.82284	1.3339	182.76	19.494	6.7851e-06	0.0096070
93.788	0.49195	724.92	0.0013795	-87.936	-87.257	3.2353	1.0041	2.1927	677.18	-0.17075	9.0986e-05	0.11244	0.0052950	20.324	0.049203	62.250	86.455	5.0874	0.82328	1.3361	182.78	19.460	6.7943e-06	0.0096245
93.890	0.49590	724.37	0.0013805	-87.717	-87.033	3.2376	1.0037	2.1943	676.04	-0.16909	9.0701e-05	0.11224	0.0052741	20.482	0.048823	62.277	86.489	5.0857	0.82373	1.3382	182.80	19.426	6.8036e-06	0.0096422
93.992	0.49987	723.81	0.0013816	-87.498	-86.808	3.2399	1.0033	2.1959	674.89	-0.16742	9.0416e-05	0.11205	0.0052532	20.641	0.048447	62.304	86.522	5.0840	0.82418	1.3404	182.82	19.391	6.8128e-06	0.0096599
94.093	0.50386	723.26	0.0013826	-87.280	-86.583	3.2423	1.0029	2.1975	673.75	-0.16574	9.0133e-05	0.11185	0.0052323	20.801	0.048074	62.331	86.554	5.0823	0.82464	1.3426	182.84	19.357	6.8221e-06	0.0096778
94.195	0.50788	722.70	0.0013837	-87.061	-86.358	3.2446	1.0026	2.1992	672.60	-0.16405	8.9851e-05	0.11165	0.0052114	20.962	0.047705	62.358	86.586	5.0806	0.82509	1.3448	182.86	19.323	6.8314e-06	0.0096957
94.297	0.51192	722.14	0.0013848	-86.842	-86.133	3.2469	1.0022	2.2008	671.46	-0.16234	8.9570e-05	0.11145	0.0051906	21.124	0.047339	62.384	86.618	5.0789	0.82555	1.3470	182.88	19.289	6.8407e-06	0.0097137
94.398	0.51599	721.58	0.0013858	-86.623	-85.908	3.2492	1.0018	2.2025	670.31	-0.16063	8.9290e-05	0.11126	0.0051698	21.287	0.046977	62.410	86.650	5.0772	0.82601	1.3492	182.89	19.255	6.8501e-06	0.0097318
94.500	0.52008	721.03	0.0013869	-86.404	-85.682	3.2516	1.0014	2.2042	669.16	-0.15890	8.9011e-05	0.11106	0.0051490	21.451	0.046618	62.436	86.681	5.0755	0.82647	1.3515	182.91	19.221	6.8594e-06	0.0097500
94.602	0.52419	720.47	0.0013880	-86.184	-85.457	3.2539	1.0010	2.2059	668.01	-0.15716	8.8734e-05	0.11086	0.0051282	21.616	0.046262	62.461	86.711	5.0738	0.82694	1.3538	182.93	19.188	6.8688e-06	0.0097683
94.703	0.52832	719.90	0.0013891	-85.965	-85.231	3.2562	1.0007	2.2076	666.86	-0.15542	8.8457e-05	0.11066	0.0051074	21.782	0.045910	62.487	86.742	5.0721	0.82740	1.3560	182.94	19.154	6.8782e-06	0.0097866
94.805	0.53248	719.34	0.0013902	-85.745	-85.005	3.2585	1.0003	2.2093	665.71	-0.15365	8.8182e-05	0.11047	0.0050867	21.949	0.045561	62.512	86.772	5.0704	0.82787	1.3583	182.96	19.121	6.8875e-06	0.0098051
94.907	0.53666	718.78	0.0013912	-85.525	-84.779	3.2609	0.99990	2.2110	664.56	-0.15188	8.7907e-05	0.11027	0.0050659	22.117	0.045215	62.536	86.801	5.0688	0.82834	1.3607	182.97	19.087	6.8970e-06	0.0098237
95.008	0.54087	718.22	0.0013923	-85.306	-84.553	3.2632	0.99953	2.2128	663.41	-0.15010	8.7634e-05	0.11007	0.0050452	22.286	0.044872	62.561	86.830	5.0671	0.82881	1.3630	182.99	19.054	6.9064e-06	0.0098423
95.110	0.54510	717.65	0.0013934	-85.086	-84.326	3.2655	0.99915	2.2145	662.25	-0.14830	8.7362e-05	0.10988	0.0050245	22.456	0.044532	62.585	86.859	5.0654	0.82929	1.3654	183.00	19.021	6.9158e-06	0.0098610
95.212	0.54935	717.09	0.0013945	-84.866	-84.099	3.2678	0.99878	2.2163	661.10	-0.14650	8.7091e-05	0.10968	0.0050038	22.627	0.044195	62.609	86.888	5.0637	0.82976	1.3677	183.02	18.988	6.9253e-06	0.0098799
95.313	0.55363	716.52	0.0013956	-84.645	-83.873	3.2701	0.99841	2.2181	659.94	-0.14468	8.6820e-05	0.10948	0.0049832	22.799	0.043862	62.633	86.916	5.0620	0.83024	1.3701	183.03	18.955	6.9348e-06	0.0098988
95.415	0.55793	715.95	0.0013967	-84.425	-83.646	3.2725	0.99805	2.2199	658.78	-0.14285	8.6551e-05	0.10929	0.0049625	22.972	0.043531	62.656	86.944	5.0603	0.83072	1.3725	183.05	18.922	6.9442e-06	0.0099178
95.517	0.56226	715.39	0.0013978	-84.205	-83.419	3.2748	0.99768	2.2217	657.62	-0.14100	8.6283e-05	0.10909	0.0049419	23.146	0.043204	62.679	86.971	5.0587	0.83120	1.3749	183.06	18.889	6.9538e-06	0.0099370
95.618	0.56661	714.82	0.0013990	-83.984	-83.191	3.2771	0.99731	2.2235	656.46	-0.13915	8.6016e-05	0.10889	0.0049213	23.321	0.042879	62.702	86.998	5.0570	0.83169	1.3774	183.07	18.856	6.9633e-06	0.0099562
95.720	0.57098	714.25	0.0014001	-83.763	-82.964	3.2794	0.99695	2.2254	655.30	-0.13728	8.5750e-05	0.10870	0.0049007	23.498	0.042557	62.725	87.024	5.0553	0.83217	1.3798	183.09	18.824	6.9728e-06	0.0099755
95.822	0.57538	713.68	0.0014012	-83.542	-82.736	3.2817	0.99659	2.2272	654.14	-0.13540	8.5485e-05	0.10850	0.0048801	23.675	0.042239	62.747	87.050	5.0536	0.83266	1.3823	183.10	18.791	6.9824e-06	0.0099950
95.923	0.57981	713.10	0.0014023	-83.321	-82.508	3.2840	0.99623	2.2291	652.97	-0.13350	8.5221e-05	0.10830	0.0048596	23.853	0.041923	62.769	87.076	5.0520	0.83315	1.3848	183.11	18.759	6.9920e-06	0.010014
96.025	0.58425	712.53	0.0014034	-83.100	-82.280	3.2863	0.99587	2.2310	651.81	-0.13160	8.4958e-05	0.10811	0.0048390	24.033	0.041610	62.791	87.102	5.0503	0.83365	1.3873	183.12	18.727	7.0016e-06	0.010034
96.127	0.58873	711.96	0.0014046	-82.879	-82.052	3.2887	0.99551	2.2329	650.64	-0.12968	8.4696e-05	0.10791	0.0048185	24.213	0.041299	62.813	87.127	5.0486	0.83414	1.3899	183.13	18.694	7.0112e-06	0.010054
96.228	0.59322	711.38	0.0014057	-82.657	-81.824	3.2910	0.99516	2.2348	649.47	-0.12775	8.4435e-05	0.10772	0.0047980	24.395	0.040992	62.834	87.151	5.0469	0.83464	1.3924	183.14	18.662	7.0208e-06	0.010074
96.330	0.59775	710.81	0.0014068	-82.436	-81.595	3.2933	0.99480	2.2367	648.30	-0.12580	8.4174e-05	0.10752	0.0047775	24.578	0.040687	62.855	87.175	5.0453	0.83514	1.3950	183.15	18.630	7.0304e-06	0.010094
96.432	0.60229	710.23	0.0014080	-82.214	-81.366	3.2956	0.99445	2.2387	647.13	-0.12384	8.3915e-05	0.10732	0.0047570	24.762	0.040385	62.876	87.199	5.0436	0.83564	1.3976	183.16	18.598	7.0401e-06	0.010114
96.533	0.60687	709.65	0.0014091	-81.992	-81.137	3.2979	0.99410	2.2406	645.96	-0.12187	8.3657e-05	0.10713	0.0047366	24.947	0.040085	62.896	87.222	5.0419	0.83615	1.4002	183.17	18.566	7.0498e-06	0.010134
96.635	0.61146	709.08	0.0014103	-81.770	-80.908	3.3002	0.99375	2.2426	644.79	-0.11988	8.3400e-05	0.10693	0.0047161	25.133	0.039789	62.916	87.245	5.0403	0.83665	1.4028	183.18	18.534	7.0595e-06	0.010154
96.737	0.61608	708.50	0.0014114	-81.548	-80.679	3.3025	0.99341	2.2446	643.61	-0.11789	8.3143e-05	0.10674	0.0046957	25.320	0.039495	62.936	87.268	5.0386	0.83716	1.4055	183.19	18.502	7.0692e-06	0.010175
96.838	0.62073	707.92	0.0014126	-81.326	-80.449	3.3048	0.99306	2.2466	642.44	-0.11587	8.2888e-05	0.10654	0.0046753	25.508	0.039203	62.956	87.290	5.0370	0.83767	1.4082	183.20	18.471	7.0790e-06	0.010195
96.940	0.62540	707.34	0.0014138	-81.104	-80.220	3.3071	0.99272	2.2486	641.26	-0.11385	8.2634e-05	0.10635	0.0046550	25.698	0.038914	62.975	87.312	5.0353	0.83819	1.4108	183.21	18.439	7.0887e-06	0.010216
97.042	0.63010	706.75	0.0014149	-80.881	-79.990	3.3094	0.99237	2.2507	640.09	-0.11181	8.2380e-05	0.10615	0.0046346	25.888	0.038628	62.994	87.333	5.0336	0.83870	1.4136	183.21	18.408	7.0985e-06	0.010236
97.143	0.63483	706.17	0.0014161	-80.659	-79.760	3.3117	0.99203	2.2527	638.91	-0.10975	8.2127e-05	0.10596	0.0046143	26.080	0.038344	63.013	87.354	5.0320	0.83922	1.4163	183.22	18.376	7.1083e-06	0.010257
97.245	0.63957	705.59	0.0014173	-80.436	-79.529	3.3140	0.99169	2.2548	637.73	-0.10768	8.1876e-05	0.10576	0.0045939	26.273	0.038062	63.031	87.375	5.0303	0.83974	1.4191	183.23	18.345	7.1181e-06	0.010278
97.347	0.64435	705.00	0.0014184	-80.213	-79.299	3.3163	0.99135	2.2569	636.54	-0.10560	8.1625e-05	0.10557	0.0045736	26.467	0.037783	63.049	87.395	5.0287	0.84027	1.4218	183.23	18.314	7.1279e-06	0.010299
97.448	0.64915	704.41	0.0014196	-79.990	-79.068	3.3186	0.99102	2.2590	635.36	-0.10350	8.1375e-05	0.10537	0.0045533	26.662	0.037507	63.067	87.414	5.0270	0.84079	1.4246	183.24	18.282	7.1378e-06	0.010320
97.550	0.65398	703.83	0.0014208	-79.766	-78.837	3.3209	0.99068	2.2611	634.18	-0.10139	8.1126e-05	0.10518	0.0045331	26.858	0.037232	63.085	87.434	5.0254	0.84132	1.4274	183.24	18.251	7.1477e-06	0.010342
97.652	0.65883	703.24	0.0014220	-79.543	-78.606	3.3232	0.99035	2.2633	632.99	-0.099266	8.0878e-05	0.10498	0.0045128	27.056	0.036961	63.102	87.453	5.0237	0.84185	1.4303	183.25	18.220	7.1576e-06	0.010363
97.753	0.66371	702.65	0.0014232	-79.319	-78.375	3.3255	0.99002	2.2654	631.81	-0.097125	8.0630e-05	0.10479	0.0044926	27.254	0.036691	63.119	87.471	5.0221	0.84238	1.4332	183.25	18.189	7.1675e-06	0.010385
97.855	0.66861	702.06	0.0014244	-79.096	-78.143	3.3278	0.98969	2.2676	630.62	-0.094968	8.0384e-05	0.10459	0.0044724	27.454	0.036424	63.136	87.489	5.0204	0.84292	1.4360	183.26	18.158	7.1774e-06	0.010406
97.957	0.67354	701.47	0.0014256	-78.872	-77.912	3.3301	0.98936	2.2698	629.43	-0.092797	8.0138e-05	0.10440	0.0044522	27.655	0.036159	63.152	87.507	5.0188	0.84346	1.4389	183.26	18.128	7.1874e-06	0.010428
98.058	0.67849	700.88	0.0014268	-78.648	-77.680	3.3324	0.98904	2.2720	628.24	-0.090611	7.9894e-05	0.10420	0.0044320	27.858	0.035897	63.168	87.524	5.0171	0.84400	1.4419	183.26	18.097	7.1973e-06	0.010450
98.160	0.68348	700.28	0.0014280	-78.424	-77.448	3.3347	0.98871	2.2742	627.05	-0.088409	7.9650e-05	0.10401	0.0044119	28.061	0.035636	63.184	87.540	5.0155	0.84454	1.4448	183.27	18.066	7.2073e-06	0.010472
98.262	0.68849	699.69	0.0014292	-78.199	-77.215	3.3370	0.98839	2.2765	625.85	-0.086192	7.9407e-05	0.10381	0.0043917	28.266	0.035378	63.199	87.557	5.0138	0.84508	1.4478	183.27	18.036	7.2173e-06	0.010494
98.363	0.69352	699.09	0.0014304	-77.975	-76.983	3.3393	0.98807	2.2788	624.66	-0.083960	7.9165e-05	0.10362	0.0043716	28.472	0.035122	63.214	87.573	5.0122	0.84563	1.4508	183.27	18.005	7.2274e-06	0.010516
98.465	0.69858	698.50	0.0014316	-77.750	-76.750	3.3416	0.98775	2.2810	623.46	-0.081711	7.8923e-05	0.10343	0.0043515	28.679	0.034869	63.229	87.588	5.0105	0.84618	1.4538	183.27	17.975	7.2374e-06	0.010539
98.567	0.70367	697.90	0.0014329	-77.525	-76.517	3.3438	0.98743	2.2834	622.26	-0.079447	7.8683e-05	0.10323	0.0043314	28.887	0.034617	63.244	87.603	5.0089	0.84673	1.4569	183.27	17.944	7.2475e-06	0.010561
98.668	0.70878	697.30	0.0014341	-77.300	-76.284	3.3461	0.98712	2.2857	621.06	-0.077166	7.8443e-05	0.10304	0.0043114	29.097	0.034368	63.258	87.618	5.0073	0.84729	1.4600	183.28	17.914	7.2576e-06	0.010584
98.770	0.71393	696.70	0.0014353	-77.075	-76.050	3.3484	0.98681	2.2880	619.86	-0.074870	7.8204e-05	0.10284	0.0042913	29.308	0.034120	63.272	87.632	5.0056	0.84785	1.4631	183.28	17.884	7.2677e-06	0.010607
98.872	0.71909	696.10	0.0014366	-76.850	-75.817	3.3507	0.98649	2.2904	618.66	-0.072557	7.7966e-05	0.10265	0.0042713	29.520	0.033875	63.286	87.645	5.0040	0.84841	1.4662	183.28	17.853	7.2779e-06	0.010630
98.973	0.72429	695.50	0.0014378	-76.624	-75.583	3.3530	0.98618	2.2928	617.46	-0.070227	7.7729e-05	0.10246	0.0042513	29.733	0.033632	63.299	87.658	5.0023	0.84897	1.4693	183.28	17.823	7.2881e-06	0.010653
99.075	0.72951	694.89	0.0014391	-76.399	-75.349	3.3553	0.98588	2.2952	616.26	-0.067881	7.7492e-05	0.10226	0.0042313	29.948	0.033391	63.312	87.671	5.0007	0.84954	1.4725	183.28	17.793	7.2982e-06	0.010676
99.177	0.73476	694.29	0.0014403	-76.173	-75.115	3.3576	0.98557	2.2976	615.05	-0.065518	7.7256e-05	0.10207	0.0042114	30.164	0.033152	63.325	87.684	4.9991	0.85011	1.4757	183.27	17.763	7.3085e-06	0.010699
99.278	0.74004	693.68	0.0014416	-75.947	-74.880	3.3599	0.98526	2.3000	613.84	-0.063138	7.7021e-05	0.10188	0.0041914	30.381	0.032915	63.337	87.695	4.9974	0.85068	1.4790	183.27	17.733	7.3187e-06	0.010723
99.380	0.74534	693.08	0.0014428	-75.721	-74.645	3.3621	0.98496	2.3025	612.63	-0.060741	7.6787e-05	0.10168	0.0041715	30.600	0.032680	63.349	87.707	4.9958	0.85125	1.4822	183.27	17.703	7.3289e-06	0.010746
99.482	0.75067	692.47	0.0014441	-75.495	-74.411	3.3644	0.98466	2.3050	611.42	-0.058327	7.6554e-05	0.10149	0.0041516	30.820	0.032447	63.361	87.718	4.9942	0.85183	1.4855	183.27	17.674	7.3392e-06	0.010770
99.583	0.75603	691.86	0.0014454	-75.268	-74.175	3.3667	0.98436	2.3075	610.21	-0.055895	7.6321e-05	0.10130	0.0041317	31.041	0.032216	63.372	87.728	4.9925	0.85241	1.4888	183.27	17.644	7.3495e-06	0.010794
99.685	0.76141	691.25	0.0014467	-75.041	-73.940	3.3690	0.98406	2.3100	609.00	-0.053446	7.6089e-05	0.10110	0.0041118	31.263	0.031986	63.383	87.738	4.9909	0.85299	1.4921	183.26	17.614	7.3599e-06	0.010818
99.787	0.76683	690.64	0.0014479	-74.815	-73.704	3.3713	0.98377	2.3126	607.78	-0.050979	7.5858e-05	0.10091	0.0040920	31.487	0.031759	63.394	87.748	4.9893	0.85357	1.4955	183.26	17.585	7.3702e-06	0.010842
99.888	0.77227	690.03	0.0014492	-74.588	-73.468	3.3736	0.98348	2.3151	606.57	-0.048493	7.5628e-05	0.10072	0.0040722	31.712	0.031533	63.405	87.757	4.9876	0.85416	1.4989	183.25	17.555	7.3806e-06	0.010866
99.990	0.77774	689.41	0.0014505	-74.360	-73.232	3.3759	0.98318	2.3177	605.35	-0.045990	7.5398e-05	0.10052	0.0040524	31.939	0.031310	63.415	87.766	4.9860	0.85475	1.5023	183.25	17.526	7.3910e-06	0.010891
100.09	0.78323	688.80	0.0014518	-74.133	-72.996	3.3781	0.98289	2.3203	604.13	-0.043469	7.5169e-05	0.10033	0.0040326	32.167	0.031088	63.424	87.774	4.9844	0.85534	1.5058	183.25	17.496	7.4014e-06	0.010916
100.19	0.78876	688.18	0.0014531	-73.906	-72.759	3.3804	0.98261	2.3230	602.91	-0.040929	7.4941e-05	0.10014	0.0040128	32.396	0.030868	63.434	87.781	4.9827	0.85594	1.5092	183.24	17.467	7.4119e-06	0.010940
100.30	0.79431	687.56	0.0014544	-73.678	-72.523	3.3827	0.98232	2.3256	601.69	-0.038370	7.4713e-05	0.099944	0.0039931	32.626	0.030650	63.443	87.789	4.9811	0.85654	1.5127	183.23	17.437	7.4223e-06	0.010965
100.40	0.79989	686.95	0.0014557	-73.450	-72.286	3.3850	0.98204	2.3283	600.46	-0.035793	7.4487e-05	0.099752	0.0039733	32.858	0.030434	63.452	87.795	4.9795	0.85714	1.5163	183.23	17.408	7.4328e-06	0.010990
100.50	0.80550	686.33	0.0014570	-73.222	-72.048	3.3873	0.98176	2.3310	599.24	-0.033196	7.4260e-05	0.099559	0.0039536	33.092	0.030219	63.460	87.802	4.9778	0.85774	1.5198	183.22	17.379	7.4434e-06	0.011016
100.60	0.81113	685.71	0.0014584	-72.994	-71.811	3.3895	0.98148	2.3337	598.01	-0.030581	7.4035e-05	0.099366	0.0039340	33.326	0.030006	63.468	87.807	4.9762	0.85835	1.5234	183.22	17.350	7.4539e-06	0.011041
100.70	0.81680	685.08	0.0014597	-72.765	-71.573	3.3918	0.98120	2.3365	596.78	-0.027946	7.3810e-05	0.099174	0.0039143	33.562	0.029795	63.476	87.813	4.9746	0.85896	1.5271	183.21	17.321	7.4645e-06	0.011066
100.80	0.82249	684.46	0.0014610	-72.537	-71.335	3.3941	0.98092	2.3393	595.55	-0.025291	7.3587e-05	0.098981	0.0038946	33.800	0.029586	63.483	87.817	4.9729	0.85957	1.5307	183.20	17.292	7.4751e-06	0.011092
100.91	0.82821	683.84	0.0014623	-72.308	-71.097	3.3964	0.98065	2.3421	594.32	-0.022617	7.3363e-05	0.098789	0.0038750	34.039	0.029378	63.490	87.822	4.9713	0.86019	1.5344	183.19	17.263	7.4857e-06	0.011118
101.01	0.83396	683.21	0.0014637	-72.079	-70.858	3.3987	0.98038	2.3449	593.09	-0.019922	7.3141e-05	0.098597	0.0038554	34.279	0.029172	63.497	87.826	4.9697	0.86081	1.5381	183.18	17.234	7.4964e-06	0.011144
101.11	0.83974	682.58	0.0014650	-71.850	-70.619	3.4009	0.98011	2.3478	591.85	-0.017208	7.2919e-05	0.098405	0.0038358	34.521	0.028968	63.504	87.829	4.9681	0.86143	1.5419	183.17	17.205	7.5070e-06	0.011170
101.21	0.84555	681.95	0.0014664	-71.620	-70.380	3.4032	0.97984	2.3506	590.62	-0.014473	7.2698e-05	0.098212	0.0038163	34.764	0.028765	63.510	87.832	4.9664	0.86205	1.5457	183.16	17.176	7.5177e-06	0.011197
101.31	0.85138	681.32	0.0014677	-71.391	-70.141	3.4055	0.97957	2.3535	589.38	-0.011718	7.2477e-05	0.098020	0.0037967	35.009	0.028564	63.515	87.834	4.9648	0.86268	1.5495	183.15	17.147	7.5285e-06	0.011223
101.41	0.85725	680.69	0.0014691	-71.161	-69.901	3.4078	0.97931	2.3565	588.14	-0.0089415	7.2257e-05	0.097828	0.0037772	35.255	0.028365	63.520	87.836	4.9632	0.86331	1.5533	183.14	17.118	7.5392e-06	0.011250
101.52	0.86314	680.06	0.0014705	-70.931	-69.662	3.4101	0.97905	2.3594	586.90	-0.0061445	7.2038e-05	0.097636	0.0037577	35.503	0.028167	63.525	87.837	4.9615	0.86394	1.5572	183.13	17.090	7.5500e-06	0.011277
101.62	0.86907	679.43	0.0014718	-70.701	-69.421	3.4123	0.97879	2.3624	585.66	-0.0033262	7.1819e-05	0.097444	0.0037382	35.752	0.027970	63.530	87.838	4.9599	0.86458	1.5611	183.12	17.061	7.5608e-06	0.011304
101.72	0.87502	678.79	0.0014732	-70.470	-69.181	3.4146	0.97853	2.3654	584.41	-0.00048658	7.1601e-05	0.097252	0.0037188	36.003	0.027776	63.534	87.838	4.9583	0.86522	1.5651	183.11	17.032	7.5717e-06	0.011331
101.82	0.88100	678.16	0.0014746	-70.240	-68.940	3.4169	0.97828	2.3684	583.17	0.0023747	7.1384e-05	0.097061	0.0036993	36.255	0.027583	63.538	87.838	4.9567	0.86586	1.5691	183.10	17.004	7.5826e-06	0.011358
101.92	0.88701	677.52	0.0014760	-70.009	-68.700	3.4192	0.97802	2.3715	581.92	0.0052577	7.1167e-05	0.096869	0.0036799	36.508	0.027391	63.541	87.837	4.9550	0.86651	1.5731	183.09	16.975	7.5935e-06	0.011386
102.02	0.89305	676.88	0.0014774	-69.778	-68.458	3.4214	0.97777	2.3746	580.67	0.0081628	7.0951e-05	0.096677	0.0036605	36.764	0.027201	63.545	87.836	4.9534	0.86715	1.5771	183.07	16.947	7.6044e-06	0.011414
102.13	0.89912	676.24	0.0014788	-69.547	-68.217	3.4237	0.97752	2.3777	579.42	0.011090	7.0736e-05	0.096486	0.0036411	37.020	0.027012	63.547	87.834	4.9518	0.86780	1.5812	183.06	16.919	7.6154e-06	0.011442
102.23	0.90522	675.60	0.0014802	-69.315	-67.975	3.4260	0.97728	2.3808	578.17	0.014040	7.0521e-05	0.096294	0.0036218	37.279	0.026825	63.550	87.832	4.9501	0.86846	1.5854	183.05	16.890	7.6263e-06	0.011470
102.33	0.91135	674.95	0.0014816	-69.084	-67.733	3.4283	0.97703	2.3840	576.91	0.017013	7.0307e-05	0.096103	0.0036024	37.538	0.026639	63.552	87.829	4.9485	0.86912	1.5895	183.03	16.862	7.6374e-06	0.011498
102.43	0.91751	674.31	0.0014830	-68.852	-67.491	3.4306	0.97679	2.3872	575.65	0.020008	7.0093e-05	0.095911	0.0035831	37.800	0.026455	63.553	87.826	4.9469	0.86978	1.5937	183.02	16.834	7.6484e-06	0.011526
102.53	0.92369	673.66	0.0014844	-68.620	-67.248	3.4328	0.97655	2.3904	574.40	0.023027	6.9880e-05	0.095720	0.0035638	38.063	0.026272	63.555	87.822	4.9452	0.87044	1.5980	183.00	16.805	7.6595e-06	0.011555
102.63	0.92991	673.02	0.0014858	-68.387	-67.006	3.4351	0.97632	2.3937	573.14	0.026069	6.9668e-05	0.095529	0.0035446	38.327	0.026091	63.555	87.818	4.9436	0.87110	1.6023	182.99	16.777	7.6706e-06	0.011584
102.74	0.93616	672.37	0.0014873	-68.155	-66.763	3.4374	0.97608	2.3970	571.88	0.029135	6.9456e-05	0.095337	0.0035253	38.593	0.025911	63.556	87.813	4.9420	0.87177	1.6066	182.97	16.749	7.6817e-06	0.011613
102.84	0.94244	671.72	0.0014887	-67.922	-66.519	3.4397	0.97585	2.4003	570.61	0.032225	6.9245e-05	0.095146	0.0035061	38.861	0.025733	63.556	87.807	4.9404	0.87244	1.6109	182.96	16.721	7.6929e-06	0.011642
102.94	0.94875	671.06	0.0014902	-67.689	-66.275	3.4419	0.97562	2.4036	569.35	0.035339	6.9034e-05	0.094955	0.0034869	39.130	0.025556	63.556	87.801	4.9387	0.87312	1.6153	182.94	16.693	7.7041e-06	0.011672
103.04	0.95508	670.41	0.0014916	-67.456	-66.031	3.4442	0.97539	2.4070	568.08	0.038477	6.8824e-05	0.094764	0.0034677	39.401	0.025380	63.555	87.795	4.9371	0.87380	1.6198	182.92	16.665	7.7154e-06	0.011701
103.14	0.96145	669.76	0.0014931	-67.223	-65.787	3.4465	0.97516	2.4104	566.81	0.041640	6.8615e-05	0.094573	0.0034485	39.674	0.025206	63.554	87.788	4.9355	0.87448	1.6242	182.90	16.637	7.7266e-06	0.011731
103.24	0.96785	669.10	0.0014945	-66.989	-65.543	3.4488	0.97494	2.4139	565.54	0.044828	6.8406e-05	0.094382	0.0034294	39.948	0.025032	63.552	87.780	4.9338	0.87516	1.6288	182.89	16.609	7.7379e-06	0.011761
103.35	0.97428	668.44	0.0014960	-66.755	-65.298	3.4510	0.97472	2.4174	564.27	0.048041	6.8197e-05	0.094191	0.0034103	40.224	0.024861	63.551	87.772	4.9322	0.87585	1.6333	182.87	16.581	7.7492e-06	0.011791
103.45	0.98074	667.78	0.0014975	-66.521	-65.053	3.4533	0.97450	2.4209	563.00	0.051280	6.7990e-05	0.094000	0.0033912	40.502	0.024690	63.548	87.763	4.9306	0.87654	1.6379	182.85	16.553	7.7606e-06	0.011822
103.55	0.98723	667.12	0.0014990	-66.287	-64.807	3.4556	0.97428	2.4244	561.72	0.054545	6.7783e-05	0.093809	0.0033721	40.781	0.024521	63.546	87.754	4.9289	0.87723	1.6426	182.83	16.525	7.7720e-06	0.011853
103.65	0.99375	666.46	0.0015005	-66.052	-64.561	3.4579	0.97407	2.4280	560.44	0.057835	6.7576e-05	0.093619	0.0033531	41.062	0.024354	63.542	87.744	4.9273	0.87792	1.6472	182.81	16.497	7.7834e-06	0.011883
103.75	1.0003	665.80	0.0015020	-65.818	-64.315	3.4602	0.97386	2.4316	559.16	0.061152	6.7370e-05	0.093428	0.0033340	41.344	0.024187	63.539	87.734	4.9257	0.87862	1.6520	182.79	16.470	7.7949e-06	0.011914
103.85	1.0069	665.13	0.0015035	-65.583	-64.069	3.4624	0.97365	2.4353	557.88	0.064495	6.7164e-05	0.093237	0.0033150	41.629	0.024022	63.535	87.722	4.9240	0.87932	1.6568	182.77	16.442	7.8064e-06	0.011946
103.96	1.0135	664.46	0.0015050	-65.347	-63.822	3.4647	0.97345	2.4389	556.60	0.067865	6.6959e-05	0.093047	0.0032961	41.915	0.023858	63.531	87.711	4.9224	0.88003	1.6616	182.75	16.414	7.8179e-06	0.011977
104.06	1.0202	663.80	0.0015065	-65.112	-63.575	3.4670	0.97324	2.4427	555.31	0.071263	6.6755e-05	0.092856	0.0032771	42.203	0.023695	63.526	87.699	4.9208	0.88074	1.6664	182.73	16.387	7.8295e-06	0.012009
104.16	1.0268	663.13	0.0015080	-64.876	-63.328	3.4693	0.97304	2.4464	554.03	0.074688	6.6551e-05	0.092666	0.0032582	42.492	0.023534	63.521	87.686	4.9191	0.88145	1.6714	182.71	16.359	7.8411e-06	0.012041
104.26	1.0335	662.45	0.0015095	-64.640	-63.080	3.4716	0.97284	2.4502	552.74	0.078141	6.6347e-05	0.092475	0.0032392	42.784	0.023373	63.515	87.673	4.9175	0.88216	1.6763	182.68	16.332	7.8528e-06	0.012073
104.36	1.0403	661.78	0.0015111	-64.404	-62.832	3.4738	0.97265	2.4540	551.45	0.081621	6.6144e-05	0.092285	0.0032203	43.077	0.023214	63.509	87.659	4.9158	0.88288	1.6813	182.66	16.304	7.8644e-06	0.012106
104.46	1.0470	661.11	0.0015126	-64.168	-62.584	3.4761	0.97245	2.4579	550.15	0.085130	6.5942e-05	0.092095	0.0032015	43.372	0.023057	63.503	87.644	4.9142	0.88360	1.6864	182.64	16.277	7.8762e-06	0.012138
104.57	1.0538	660.43	0.0015142	-63.931	-62.335	3.4784	0.97226	2.4618	548.86	0.088668	6.5740e-05	0.091905	0.0031826	43.668	0.022900	63.496	87.629	4.9126	0.88432	1.6915	182.62	16.249	7.8879e-06	0.012171
104.67	1.0607	659.75	0.0015157	-63.694	-62.086	3.4807	0.97208	2.4657	547.56	0.092235	6.5539e-05	0.091714	0.0031638	43.967	0.022744	63.489	87.613	4.9109	0.88504	1.6966	182.59	16.222	7.8997e-06	0.012204
104.77	1.0675	659.07	0.0015173	-63.457	-61.837	3.4830	0.97189	2.4697	546.26	0.095831	6.5338e-05	0.091524	0.0031450	44.267	0.022590	63.481	87.597	4.9093	0.88577	1.7018	182.57	16.194	7.9115e-06	0.012238
104.87	1.0744	658.39	0.0015189	-63.219	-61.587	3.4852	0.97171	2.4737	544.96	0.099457	6.5137e-05	0.091334	0.0031262	44.570	0.022437	63.473	87.580	4.9076	0.88650	1.7071	182.54	16.167	7.9234e-06	0.012271
104.97	1.0814	657.71	0.0015204	-62.982	-61.337	3.4875	0.97153	2.4778	543.66	0.10311	6.4937e-05	0.091144	0.0031075	44.874	0.022285	63.464	87.562	4.9060	0.88724	1.7124	182.52	16.140	7.9353e-06	0.012305
105.07	1.0883	657.02	0.0015220	-62.744	-61.087	3.4898	0.97135	2.4819	542.36	0.10680	6.4738e-05	0.090954	0.0030887	45.180	0.022134	63.455	87.544	4.9044	0.88798	1.7178	182.49	16.112	7.9472e-06	0.012339
105.18	1.0953	656.34	0.0015236	-62.505	-60.836	3.4921	0.97118	2.4860	541.05	0.11052	6.4539e-05	0.090764	0.0030700	45.487	0.021984	63.446	87.525	4.9027	0.88872	1.7232	182.47	16.085	7.9592e-06	0.012373
105.28	1.1024	655.65	0.0015252	-62.267	-60.585	3.4944	0.97101	2.4902	539.74	0.11426	6.4340e-05	0.090574	0.0030513	45.797	0.021835	63.436	87.506	4.9011	0.88946	1.7287	182.44	16.058	7.9712e-06	0.012408
105.38	1.1094	654.96	0.0015268	-62.028	-60.334	3.4967	0.97084	2.4944	538.43	0.11804	6.4142e-05	0.090384	0.0030327	46.109	0.021688	63.425	87.486	4.8994	0.89021	1.7342	182.41	16.031	7.9833e-06	0.012443
105.48	1.1165	654.26	0.0015284	-61.789	-60.082	3.4989	0.97067	2.4987	537.12	0.12185	6.3945e-05	0.090194	0.0030140	46.422	0.021541	63.415	87.465	4.8978	0.89096	1.7398	182.39	16.003	7.9954e-06	0.012478
105.58	1.1236	653.57	0.0015301	-61.550	-59.830	3.5012	0.97051	2.5030	535.80	0.12570	6.3748e-05	0.090004	0.0029954	46.738	0.021396	63.403	87.444	4.8961	0.89171	1.7454	182.36	15.976	8.0075e-06	0.012513
105.68	1.1308	652.88	0.0015317	-61.310	-59.578	3.5035	0.97035	2.5073	534.49	0.12957	6.3551e-05	0.089815	0.0029768	47.056	0.021252	63.391	87.422	4.8945	0.89247	1.7511	182.33	15.949	8.0197e-06	0.012549
105.79	1.1380	652.18	0.0015333	-61.070	-59.325	3.5058	0.97019	2.5117	533.17	0.13348	6.3355e-05	0.089625	0.0029583	47.375	0.021108	63.379	87.400	4.8928	0.89323	1.7568	182.30	15.922	8.0319e-06	0.012585
105.89	1.1452	651.48	0.0015350	-60.830	-59.072	3.5081	0.97004	2.5162	531.85	0.13742	6.3159e-05	0.089435	0.0029397	47.696	0.020966	63.367	87.376	4.8911	0.89399	1.7626	182.27	15.895	8.0442e-06	0.012621
105.99	1.1524	650.78	0.0015366	-60.589	-58.819	3.5104	0.96989	2.5206	530.52	0.14140	6.2964e-05	0.089246	0.0029212	48.020	0.020825	63.353	87.353	4.8895	0.89476	1.7685	182.24	15.868	8.0565e-06	0.012657
106.09	1.1597	650.08	0.0015383	-60.349	-58.565	3.5127	0.96974	2.5252	529.20	0.14541	6.2769e-05	0.089056	0.0029027	48.345	0.020685	63.340	87.328	4.8878	0.89553	1.7744	182.21	15.841	8.0688e-06	0.012694
106.19	1.1670	649.37	0.0015400	-60.108	-58.311	3.5149	0.96960	2.5298	527.87	0.14945	6.2575e-05	0.088867	0.0028842	48.673	0.020545	63.326	87.303	4.8862	0.89630	1.7804	182.18	15.814	8.0812e-06	0.012731
106.29	1.1744	648.66	0.0015416	-59.866	-58.056	3.5172	0.96946	2.5344	526.54	0.15353	6.2381e-05	0.088677	0.0028658	49.002	0.020407	63.311	87.277	4.8845	0.89708	1.7865	182.15	15.787	8.0937e-06	0.012768
106.40	1.1818	647.96	0.0015433	-59.625	-57.801	3.5195	0.96932	2.5391	525.21	0.15765	6.2187e-05	0.088488	0.0028474	49.334	0.020270	63.296	87.250	4.8829	0.89786	1.7926	182.12	15.760	8.1062e-06	0.012806
106.50	1.1892	647.25	0.0015450	-59.383	-57.546	3.5218	0.96918	2.5438	523.87	0.16179	6.1994e-05	0.088298	0.0028290	49.668	0.020134	63.280	87.223	4.8812	0.89864	1.7988	182.09	15.733	8.1187e-06	0.012843
106.60	1.1966	646.53	0.0015467	-59.141	-57.290	3.5241	0.96905	2.5486	522.54	0.16598	6.1801e-05	0.088109	0.0028106	50.004	0.019999	63.264	87.195	4.8795	0.89943	1.8050	182.06	15.706	8.1313e-06	0.012881
106.70	1.2041	645.82	0.0015484	-58.898	-57.034	3.5264	0.96892	2.5534	521.20	0.17020	6.1609e-05	0.087919	0.0027923	50.342	0.019864	63.248	87.167	4.8779	0.90022	1.8114	182.03	15.680	8.1439e-06	0.012920
106.80	1.2117	645.10	0.0015501	-58.655	-56.777	3.5287	0.96880	2.5583	519.86	0.17446	6.1417e-05	0.087730	0.0027739	50.682	0.019731	63.230	87.138	4.8762	0.90101	1.8177	182.00	15.653	8.1566e-06	0.012959
106.90	1.2192	644.38	0.0015519	-58.412	-56.520	3.5310	0.96867	2.5632	518.51	0.17876	6.1226e-05	0.087541	0.0027556	51.024	0.019599	63.213	87.108	4.8745	0.90181	1.8242	181.96	15.626	8.1693e-06	0.012998
107.01	1.2268	643.66	0.0015536	-58.169	-56.263	3.5333	0.96855	2.5682	517.17	0.18309	6.1035e-05	0.087351	0.0027374	51.368	0.019467	63.195	87.077	4.8729	0.90261	1.8307	181.93	15.599	8.1820e-06	0.013037
107.11	1.2344	642.94	0.0015554	-57.925	-56.005	3.5356	0.96844	2.5732	515.82	0.18747	6.0844e-05	0.087162	0.0027191	51.715	0.019337	63.176	87.046	4.8712	0.90341	1.8373	181.90	15.572	8.1948e-06	0.013076
107.21	1.2421	642.22	0.0015571	-57.681	-55.747	3.5379	0.96833	2.5783	514.47	0.19188	6.0654e-05	0.086973	0.0027009	52.064	0.019207	63.157	87.014	4.8695	0.90422	1.8440	181.86	15.546	8.2077e-06	0.013116
107.31	1.2497	641.49	0.0015589	-57.437	-55.488	3.5402	0.96822	2.5835	513.12	0.19633	6.0464e-05	0.086784	0.0026827	52.415	0.019079	63.137	86.981	4.8678	0.90503	1.8508	181.83	15.519	8.2206e-06	0.013157
107.41	1.2575	640.76	0.0015606	-57.192	-55.230	3.5425	0.96811	2.5887	511.77	0.20082	6.0274e-05	0.086595	0.0026645	52.768	0.018951	63.117	86.947	4.8661	0.90585	1.8576	181.79	15.492	8.2336e-06	0.013197
107.51	1.2652	640.03	0.0015624	-56.947	-54.970	3.5448	0.96801	2.5939	510.41	0.20535	6.0085e-05	0.086406	0.0026464	53.123	0.018824	63.096	86.913	4.8645	0.90667	1.8645	181.76	15.465	8.2466e-06	0.013238
107.62	1.2730	639.30	0.0015642	-56.702	-54.710	3.5471	0.96791	2.5993	509.05	0.20992	5.9897e-05	0.086216	0.0026282	53.481	0.018698	63.075	86.878	4.8628	0.90750	1.8715	181.72	15.439	8.2596e-06	0.013279
107.72	1.2808	638.56	0.0015660	-56.456	-54.450	3.5494	0.96782	2.6046	507.69	0.21453	5.9708e-05	0.086027	0.0026101	53.841	0.018573	63.053	86.843	4.8611	0.90833	1.8785	181.69	15.412	8.2727e-06	0.013321
107.82	1.2887	637.83	0.0015678	-56.210	-54.190	3.5517	0.96773	2.6101	506.32	0.21919	5.9520e-05	0.085838	0.0025921	54.204	0.018449	63.031	86.806	4.8594	0.90916	1.8857	181.65	15.385	8.2859e-06	0.013363
107.92	1.2966	637.09	0.0015696	-55.964	-53.928	3.5540	0.96764	2.6156	504.96	0.22389	5.9332e-05	0.085649	0.0025740	54.568	0.018326	63.008	86.769	4.8577	0.91000	1.8929	181.61	15.359	8.2991e-06	0.013405
108.02	1.3045	636.35	0.0015715	-55.717	-53.667	3.5563	0.96756	2.6211	503.59	0.22863	5.9145e-05	0.085460	0.0025560	54.935	0.018203	62.985	86.731	4.8560	0.91084	1.9002	181.58	15.332	8.3124e-06	0.013447
108.12	1.3125	635.60	0.0015733	-55.470	-53.405	3.5586	0.96748	2.6268	502.22	0.23341	5.8958e-05	0.085272	0.0025380	55.305	0.018082	62.961	86.692	4.8543	0.91169	1.9076	181.54	15.305	8.3257e-06	0.013490
108.23	1.3205	634.86	0.0015752	-55.223	-53.143	3.5609	0.96740	2.6325	500.84	0.23824	5.8772e-05	0.085083	0.0025201	55.677	0.017961	62.936	86.653	4.8526	0.91254	1.9151	181.50	15.279	8.3391e-06	0.013533
108.33	1.3285	634.11	0.0015770	-54.975	-52.880	3.5632	0.96733	2.6382	499.47	0.24311	5.8585e-05	0.084894	0.0025021	56.051	0.017841	62.911	86.613	4.8509	0.91340	1.9226	181.46	15.252	8.3525e-06	0.013577
108.43	1.3366	633.36	0.0015789	-54.727	-52.617	3.5655	0.96726	2.6440	498.09	0.24802	5.8399e-05	0.084705	0.0024842	56.428	0.017722	62.885	86.572	4.8492	0.91426	1.9303	181.42	15.225	8.3660e-06	0.013621
108.53	1.3447	632.61	0.0015808	-54.478	-52.353	3.5679	0.96720	2.6499	496.71	0.25299	5.8214e-05	0.084516	0.0024663	56.807	0.017603	62.859	86.530	4.8475	0.91513	1.9381	181.38	15.199	8.3796e-06	0.013665
108.63	1.3528	631.85	0.0015827	-54.230	-52.089	3.5702	0.96714	2.6559	495.32	0.25800	5.8029e-05	0.084327	0.0024485	57.189	0.017486	62.832	86.488	4.8458	0.91600	1.9459	181.34	15.172	8.3932e-06	0.013710
108.73	1.3610	631.09	0.0015845	-53.980	-51.824	3.5725	0.96708	2.6619	493.94	0.26305	5.7844e-05	0.084138	0.0024306	57.573	0.017369	62.805	86.444	4.8441	0.91688	1.9539	181.30	15.145	8.4068e-06	0.013755
108.84	1.3692	630.33	0.0015865	-53.731	-51.559	3.5748	0.96703	2.6680	492.55	0.26815	5.7659e-05	0.083950	0.0024128	57.959	0.017253	62.777	86.400	4.8424	0.91777	1.9619	181.26	15.119	8.4205e-06	0.013800
108.94	1.3774	629.57	0.0015884	-53.481	-51.293	3.5771	0.96698	2.6742	491.15	0.27330	5.7475e-05	0.083761	0.0023950	58.349	0.017138	62.748	86.355	4.8407	0.91866	1.9701	181.22	15.092	8.4343e-06	0.013846
109.04	1.3857	628.81	0.0015903	-53.231	-51.027	3.5794	0.96694	2.6804	489.76	0.27850	5.7291e-05	0.083572	0.0023773	58.741	0.017024	62.719	86.309	4.8390	0.91955	1.9783	181.18	15.065	8.4482e-06	0.013893
109.14	1.3940	628.04	0.0015923	-52.980	-50.761	3.5818	0.96690	2.6867	488.36	0.28375	5.7107e-05	0.083383	0.0023596	59.135	0.016910	62.689	86.263	4.8373	0.92045	1.9867	181.14	15.039	8.4621e-06	0.013939
109.24	1.4024	627.27	0.0015942	-52.729	-50.494	3.5841	0.96686	2.6931	486.96	0.28905	5.6924e-05	0.083195	0.0023419	59.532	0.016798	62.659	86.216	4.8355	0.92136	1.9951	181.09	15.012	8.4760e-06	0.013986
109.34	1.4108	626.50	0.0015962	-52.478	-50.226	3.5864	0.96683	2.6996	485.56	0.29440	5.6741e-05	0.083006	0.0023242	59.932	0.016686	62.628	86.167	4.8338	0.92228	2.0037	181.05	14.985	8.4900e-06	0.014034
109.45	1.4192	625.73	0.0015981	-52.226	-49.958	3.5887	0.96681	2.7061	484.16	0.29980	5.6558e-05	0.082817	0.0023065	60.334	0.016574	62.596	86.118	4.8321	0.92320	2.0124	181.01	14.958	8.5041e-06	0.014081
109.55	1.4277	624.95	0.0016001	-51.974	-49.689	3.5911	0.96679	2.7127	482.75	0.30526	5.6376e-05	0.082629	0.0022889	60.739	0.016464	62.564	86.068	4.8303	0.92413	2.0212	180.96	14.932	8.5183e-06	0.014130
109.65	1.4361	624.17	0.0016021	-51.721	-49.420	3.5934	0.96677	2.7194	481.34	0.31076	5.6194e-05	0.082440	0.0022713	61.147	0.016354	62.531	86.018	4.8286	0.92506	2.0301	180.92	14.905	8.5325e-06	0.014178
109.75	1.4447	623.39	0.0016041	-51.468	-49.151	3.5957	0.96675	2.7262	479.93	0.31632	5.6012e-05	0.082251	0.0022538	61.557	0.016245	62.497	85.966	4.8269	0.92600	2.0391	180.87	14.878	8.5468e-06	0.014228
109.85	1.4532	622.60	0.0016062	-51.215	-48.881	3.5981	0.96675	2.7331	478.51	0.32194	5.5830e-05	0.082063	0.0022363	61.971	0.016137	62.463	85.913	4.8251	0.92695	2.0482	180.83	14.851	8.5611e-06	0.014277
109.95	1.4618	621.82	0.0016082	-50.961	-48.610	3.6004	0.96674	2.7401	477.09	0.32761	5.5649e-05	0.081874	0.0022188	62.387	0.016029	62.428	85.860	4.8234	0.92791	2.0575	180.78	14.824	8.5756e-06	0.014327
110.06	1.4705	621.03	0.0016102	-50.707	-48.339	3.6027	0.96674	2.7471	475.67	0.33333	5.5468e-05	0.081686	0.0022013	62.806	0.015922	62.393	85.806	4.8216	0.92887	2.0669	180.74	14.797	8.5900e-06	0.014377
110.16	1.4792	620.23	0.0016123	-50.452	-48.068	3.6051	0.96675	2.7542	474.25	0.33911	5.5287e-05	0.081497	0.0021838	63.228	0.015816	62.356	85.751	4.8199	0.92985	2.0764	180.69	14.771	8.6046e-06	0.014428
110.26	1.4879	619.44	0.0016144	-50.197	-47.795	3.6074	0.96676	2.7614	472.82	0.34495	5.5106e-05	0.081309	0.0021664	63.652	0.015710	62.320	85.695	4.8181	0.93083	2.0861	180.64	14.744	8.6192e-06	0.014480
110.36	1.4966	618.64	0.0016164	-49.942	-47.523	3.6098	0.96677	2.7688	471.39	0.35085	5.4926e-05	0.081120	0.0021490	64.080	0.015606	62.282	85.638	4.8164	0.93182	2.0959	180.59	14.717	8.6339e-06	0.014532
110.46	1.5054	617.84	0.0016185	-49.686	-47.249	3.6121	0.96680	2.7762	469.96	0.35680	5.4746e-05	0.080931	0.0021317	64.510	0.015501	62.244	85.580	4.8146	0.93281	2.1058	180.55	14.690	8.6487e-06	0.014584
110.56	1.5142	617.04	0.0016207	-49.430	-46.976	3.6145	0.96682	2.7837	468.52	0.36282	5.4566e-05	0.080743	0.0021143	64.944	0.015398	62.205	85.521	4.8128	0.93382	2.1158	180.50	14.663	8.6635e-06	0.014637
110.67	1.5231	616.23	0.0016228	-49.173	-46.701	3.6168	0.96685	2.7913	467.08	0.36890	5.4387e-05	0.080554	0.0020970	65.380	0.015295	62.165	85.461	4.8111	0.93484	2.1260	180.45	14.635	8.6785e-06	0.014690
110.77	1.5320	615.42	0.0016249	-48.916	-46.426	3.6192	0.96689	2.7990	465.64	0.37504	5.4208e-05	0.080366	0.0020798	65.820	0.015193	62.125	85.401	4.8093	0.93586	2.1364	180.40	14.608	8.6934e-06	0.014744
110.87	1.5409	614.61	0.0016271	-48.658	-46.151	3.6215	0.96693	2.8068	464.20	0.38124	5.4029e-05	0.080177	0.0020625	66.262	0.015092	62.084	85.339	4.8075	0.93689	2.1469	180.35	14.581	8.7085e-06	0.014798
110.97	1.5499	613.79	0.0016292	-48.400	-45.875	3.6239	0.96697	2.8147	462.75	0.38750	5.3850e-05	0.079989	0.0020453	66.708	0.014991	62.042	85.277	4.8057	0.93794	2.1575	180.30	14.554	8.7237e-06	0.014853
111.07	1.5589	612.98	0.0016314	-48.141	-45.598	3.6262	0.96703	2.8227	461.30	0.39383	5.3671e-05	0.079800	0.0020281	67.157	0.014890	62.000	85.213	4.8040	0.93899	2.1683	180.24	14.527	8.7389e-06	0.014908
111.17	1.5680	612.15	0.0016336	-47.882	-45.321	3.6286	0.96708	2.8308	459.85	0.40022	5.3493e-05	0.079612	0.0020110	67.609	0.014791	61.957	85.149	4.8022	0.94005	2.1793	180.19	14.499	8.7542e-06	0.014964
111.28	1.5771	611.33	0.0016358	-47.623	-45.043	3.6310	0.96715	2.8390	458.39	0.40668	5.3315e-05	0.079423	0.0019938	68.064	0.014692	61.913	85.083	4.8004	0.94113	2.1904	180.14	14.472	8.7696e-06	0.015020
111.38	1.5862	610.50	0.0016380	-47.363	-44.765	3.6333	0.96721	2.8473	456.93	0.41321	5.3137e-05	0.079235	0.0019767	68.522	0.014594	61.868	85.017	4.7986	0.94221	2.2017	180.09	14.444	8.7850e-06	0.015077
111.48	1.5953	609.67	0.0016402	-47.102	-44.486	3.6357	0.96729	2.8558	455.47	0.41980	5.2959e-05	0.079046	0.0019597	68.984	0.014496	61.823	84.949	4.7968	0.94331	2.2131	180.03	14.417	8.8006e-06	0.015134
111.58	1.6046	608.84	0.0016425	-46.842	-44.206	3.6381	0.96737	2.8643	454.00	0.42647	5.2782e-05	0.078858	0.0019427	69.449	0.014399	61.777	84.881	4.7950	0.94441	2.2247	179.98	14.389	8.8162e-06	0.015192
111.68	1.6138	608.00	0.0016447	-46.580	-43.926	3.6404	0.96745	2.8730	452.54	0.43320	5.2604e-05	0.078669	0.0019257	69.917	0.014303	61.730	84.811	4.7932	0.94553	2.2365	179.92	14.362	8.8319e-06	0.015251
111.78	1.6231	607.16	0.0016470	-46.318	-43.645	3.6428	0.96755	2.8818	451.06	0.44001	5.2427e-05	0.078481	0.0019087	70.389	0.014207	61.682	84.741	4.7913	0.94666	2.2485	179.87	14.334	8.8477e-06	0.015310
111.89	1.6324	606.32	0.0016493	-46.056	-43.363	3.6452	0.96764	2.8907	449.59	0.44689	5.2250e-05	0.078292	0.0018917	70.864	0.014112	61.634	84.669	4.7895	0.94780	2.2606	179.81	14.306	8.8636e-06	0.015370
111.99	1.6417	605.47	0.0016516	-45.793	-43.081	3.6476	0.96775	2.8998	448.11	0.45384	5.2074e-05	0.078104	0.0018748	71.342	0.014017	61.584	84.597	4.7877	0.94895	2.2730	179.75	14.278	8.8796e-06	0.015430
112.09	1.6511	604.62	0.0016539	-45.529	-42.798	3.6500	0.96786	2.9089	446.63	0.46086	5.1897e-05	0.077915	0.0018580	71.824	0.013923	61.534	84.523	4.7859	0.95011	2.2855	179.70	14.251	8.8957e-06	0.015491
112.19	1.6606	603.77	0.0016563	-45.265	-42.515	3.6524	0.96798	2.9182	445.14	0.46797	5.1721e-05	0.077727	0.0018411	72.310	0.013829	61.484	84.448	4.7840	0.95129	2.2983	179.64	14.223	8.9118e-06	0.015553
112.29	1.6700	602.92	0.0016586	-45.001	-42.231	3.6548	0.96810	2.9277	443.65	0.47514	5.1544e-05	0.077538	0.0018243	72.799	0.013737	61.432	84.372	4.7822	0.95248	2.3112	179.58	14.194	8.9281e-06	0.015615
112.39	1.6795	602.06	0.0016610	-44.736	-41.946	3.6571	0.96823	2.9372	442.16	0.48240	5.1368e-05	0.077350	0.0018075	73.291	0.013644	61.379	84.295	4.7804	0.95368	2.3243	179.52	14.166	8.9445e-06	0.015677
112.50	1.6891	601.19	0.0016634	-44.470	-41.661	3.6595	0.96836	2.9469	440.67	0.48974	5.1192e-05	0.077161	0.0017908	73.787	0.013552	61.326	84.217	4.7785	0.95489	2.3377	179.46	14.138	8.9609e-06	0.015741
112.60	1.6987	600.33	0.0016658	-44.204	-41.375	3.6619	0.96851	2.9568	439.17	0.49716	5.1017e-05	0.076973	0.0017740	74.287	0.013461	61.272	84.138	4.7767	0.95612	2.3512	179.40	14.110	8.9774e-06	0.015805
112.70	1.7083	599.46	0.0016682	-43.937	-41.088	3.6643	0.96866	2.9668	437.67	0.50466	5.0841e-05	0.076784	0.0017574	74.791	0.013371	61.217	84.058	4.7748	0.95736	2.3650	179.34	14.081	8.9941e-06	0.015870
112.80	1.7180	598.58	0.0016706	-43.670	-40.800	3.6668	0.96881	2.9769	436.16	0.51224	5.0666e-05	0.076596	0.0017407	75.298	0.013281	61.161	83.977	4.7729	0.95862	2.3790	179.28	14.053	9.0108e-06	0.015935
112.90	1.7277	597.71	0.0016731	-43.402	-40.512	3.6692	0.96898	2.9872	434.65	0.51991	5.0490e-05	0.076407	0.0017241	75.809	0.013191	61.104	83.894	4.7711	0.95988	2.3933	179.21	14.024	9.0277e-06	0.016001
113.00	1.7374	596.82	0.0016755	-43.134	-40.223	3.6716	0.96915	2.9977	433.14	0.52766	5.0315e-05	0.076219	0.0017075	76.324	0.013102	61.047	83.810	4.7692	0.96117	2.4077	179.15	13.996	9.0446e-06	0.016068
113.11	1.7472	595.94	0.0016780	-42.865	-39.933	3.6740	0.96933	3.0083	431.63	0.53550	5.0140e-05	0.076030	0.0016909	76.843	0.013013	60.988	83.725	4.7673	0.96247	2.4224	179.08	13.967	9.0617e-06	0.016135
113.21	1.7570	595.05	0.0016805	-42.596	-39.643	3.6764	0.96951	3.0191	430.11	0.54344	4.9965e-05	0.075842	0.0016744	77.366	0.012926	60.929	83.639	4.7654	0.96378	2.4374	179.02	13.938	9.0788e-06	0.016204
113.31	1.7669	594.16	0.0016831	-42.326	-39.352	3.6788	0.96971	3.0300	428.58	0.55146	4.9791e-05	0.075653	0.0016579	77.893	0.012838	60.868	83.552	4.7635	0.96510	2.4526	178.95	13.909	9.0961e-06	0.016273
113.41	1.7768	593.26	0.0016856	-42.055	-39.060	3.6813	0.96991	3.0411	427.06	0.55957	4.9616e-05	0.075465	0.0016415	78.424	0.012751	60.807	83.464	4.7616	0.96645	2.4681	178.89	13.880	9.1135e-06	0.016342
113.51	1.7868	592.36	0.0016882	-41.783	-38.767	3.6837	0.97012	3.0524	425.53	0.56778	4.9441e-05	0.075276	0.0016251	78.959	0.012665	60.745	83.374	4.7597	0.96780	2.4838	178.82	13.851	9.1310e-06	0.016413
113.61	1.7967	591.46	0.0016907	-41.512	-38.474	3.6861	0.97033	3.0638	423.99	0.57608	4.9267e-05	0.075088	0.0016087	79.498	0.012579	60.682	83.283	4.7578	0.96918	2.4998	178.75	13.821	9.1486e-06	0.016484
113.72	1.8068	590.55	0.0016933	-41.239	-38.180	3.6886	0.97056	3.0755	422.45	0.58448	4.9092e-05	0.074899	0.0015923	80.041	0.012494	60.618	83.191	4.7559	0.97057	2.5161	178.68	13.792	9.1663e-06	0.016556
113.82	1.8168	589.64	0.0016960	-40.966	-37.884	3.6910	0.97079	3.0873	420.91	0.59298	4.8918e-05	0.074711	0.0015760	80.589	0.012409	60.553	83.097	4.7540	0.97197	2.5327	178.61	13.762	9.1841e-06	0.016629
113.92	1.8269	588.72	0.0016986	-40.692	-37.589	3.6935	0.97103	3.0993	419.37	0.60157	4.8744e-05	0.074522	0.0015597	81.141	0.012324	60.487	83.002	4.7520	0.97339	2.5495	178.54	13.733	9.2021e-06	0.016703
114.02	1.8371	587.80	0.0017013	-40.417	-37.292	3.6959	0.97128	3.1115	417.82	0.61027	4.8570e-05	0.074333	0.0015435	81.697	0.012240	60.420	82.906	4.7501	0.97483	2.5667	178.47	13.703	9.2201e-06	0.016777
114.12	1.8473	586.88	0.0017039	-40.142	-36.995	3.6984	0.97154	3.1239	416.26	0.61908	4.8396e-05	0.074145	0.0015273	82.258	0.012157	60.352	82.809	4.7482	0.97628	2.5841	178.40	13.673	9.2383e-06	0.016852
114.22	1.8575	585.95	0.0017066	-39.866	-36.696	3.7008	0.97181	3.1365	414.71	0.62798	4.8222e-05	0.073956	0.0015111	82.823	0.012074	60.283	82.710	4.7462	0.97775	2.6019	178.33	13.643	9.2567e-06	0.016928
114.33	1.8678	585.02	0.0017094	-39.590	-36.397	3.7033	0.97209	3.1494	413.15	0.63700	4.8048e-05	0.073768	0.0014949	83.393	0.011991	60.213	82.610	4.7443	0.97924	2.6200	178.26	13.613	9.2751e-06	0.017006
114.43	1.8781	584.08	0.0017121	-39.313	-36.097	3.7058	0.97237	3.1624	411.58	0.64613	4.7874e-05	0.073579	0.0014788	83.967	0.011909	60.142	82.509	4.7423	0.98075	2.6385	178.18	13.583	9.2937e-06	0.017083
114.53	1.8885	583.14	0.0017149	-39.035	-35.796	3.7082	0.97267	3.1757	410.01	0.65536	4.7701e-05	0.073390	0.0014628	84.546	0.011828	60.070	82.406	4.7403	0.98227	2.6572	178.11	13.552	9.3124e-06	0.017162
114.63	1.8989	582.19	0.0017177	-38.756	-35.495	3.7107	0.97297	3.1892	408.44	0.66472	4.7527e-05	0.073202	0.0014467	85.129	0.011747	59.996	82.302	4.7383	0.98381	2.6763	178.03	13.522	9.3313e-06	0.017242
114.73	1.9093	581.24	0.0017205	-38.477	-35.192	3.7132	0.97328	3.2029	406.86	0.67418	4.7353e-05	0.073013	0.0014307	85.718	0.011666	59.922	82.196	4.7364	0.98537	2.6958	177.95	13.491	9.3503e-06	0.017323
114.83	1.9198	580.28	0.0017233	-38.197	-34.889	3.7157	0.97361	3.2168	405.28	0.68377	4.7179e-05	0.072825	0.0014148	86.311	0.011586	59.847	82.089	4.7344	0.98694	2.7157	177.88	13.460	9.3694e-06	0.017404
114.94	1.9303	579.32	0.0017262	-37.916	-34.584	3.7182	0.97394	3.2310	403.69	0.69347	4.7006e-05	0.072636	0.0013988	86.909	0.011506	59.770	81.981	4.7324	0.98854	2.7359	177.80	13.429	9.3886e-06	0.017487
115.04	1.9409	578.36	0.0017290	-37.635	-34.279	3.7207	0.97429	3.2455	402.10	0.70330	4.6832e-05	0.072447	0.0013829	87.512	0.011427	59.693	81.871	4.7303	0.99015	2.7565	177.72	13.398	9.4081e-06	0.017571
115.14	1.9515	577.39	0.0017319	-37.352	-33.973	3.7232	0.97464	3.2602	400.50	0.71325	4.6659e-05	0.072259	0.0013671	88.121	0.011348	59.614	81.759	4.7283	0.99179	2.7775	177.64	13.367	9.4276e-06	0.017655
115.24	1.9621	576.41	0.0017349	-37.069	-33.665	3.7257	0.97500	3.2752	398.90	0.72333	4.6485e-05	0.072070	0.0013513	88.734	0.011270	59.534	81.646	4.7263	0.99344	2.7989	177.56	13.336	9.4473e-06	0.017741
115.34	1.9728	575.43	0.0017378	-36.786	-33.357	3.7282	0.97538	3.2904	397.30	0.73354	4.6312e-05	0.071882	0.0013355	89.352	0.011192	59.453	81.532	4.7243	0.99511	2.8208	177.48	13.304	9.4672e-06	0.017828
115.44	1.9835	574.44	0.0017408	-36.501	-33.048	3.7307	0.97577	3.3060	395.69	0.74387	4.6138e-05	0.071693	0.0013198	89.976	0.011114	59.371	81.416	4.7222	0.99680	2.8431	177.39	13.272	9.4872e-06	0.017916
115.55	1.9943	573.45	0.0017438	-36.216	-32.738	3.7332	0.97617	3.3218	394.08	0.75435	4.5964e-05	0.071504	0.0013041	90.605	0.011037	59.288	81.298	4.7202	0.99851	2.8658	177.31	13.241	9.5074e-06	0.018005
115.65	2.0051	572.46	0.0017469	-35.929	-32.427	3.7358	0.97658	3.3379	392.46	0.76496	4.5791e-05	0.071316	0.0012884	91.240	0.010960	59.203	81.179	4.7181	1.0002	2.8890	177.23	13.209	9.5277e-06	0.018095
115.75	2.0160	571.46	0.0017499	-35.642	-32.115	3.7383	0.97700	3.3543	390.84	0.77571	4.5617e-05	0.071127	0.0012728	91.880	0.010884	59.117	81.059	4.7160	1.0020	2.9126	177.14	13.177	9.5482e-06	0.018186
115.85	2.0269	570.45	0.0017530	-35.354	-31.801	3.7408	0.97743	3.3711	389.21	0.78661	4.5443e-05	0.070938	0.0012572	92.526	0.010808	59.030	80.936	4.7140	1.0038	2.9367	177.06	13.144	9.5689e-06	0.018279
115.95	2.0378	569.44	0.0017561	-35.066	-31.487	3.7434	0.97788	3.3881	387.58	0.79765	4.5270e-05	0.070750	0.0012417	93.177	0.010732	58.942	80.812	4.7119	1.0056	2.9614	176.97	13.112	9.5897e-06	0.018372
116.05	2.0488	568.42	0.0017593	-34.776	-31.172	3.7459	0.97834	3.4055	385.94	0.80884	4.5096e-05	0.070561	0.0012262	93.834	0.010657	58.852	80.686	4.7098	1.0074	2.9865	176.88	13.079	9.6107e-06	0.018467
116.16	2.0599	567.40	0.0017624	-34.486	-30.855	3.7485	0.97881	3.4233	384.30	0.82018	4.4922e-05	0.070373	0.0012107	94.497	0.010582	58.761	80.559	4.7077	1.0092	3.0122	176.79	13.046	9.6319e-06	0.018563
116.26	2.0709	566.37	0.0017656	-34.194	-30.538	3.7511	0.97929	3.4413	382.65	0.83167	4.4748e-05	0.070184	0.0011953	95.166	0.010508	58.669	80.430	4.7056	1.0111	3.0384	176.70	13.013	9.6533e-06	0.018660
116.36	2.0821	565.34	0.0017689	-33.902	-30.219	3.7536	0.97979	3.4598	380.99	0.84333	4.4574e-05	0.069996	0.0011799	95.841	0.010434	58.575	80.299	4.7034	1.0129	3.0652	176.61	12.980	9.6748e-06	0.018759
116.46	2.0932	564.29	0.0017721	-33.609	-29.899	3.7562	0.98030	3.4786	379.34	0.85514	4.4400e-05	0.069807	0.0011646	96.522	0.010360	58.480	80.166	4.7013	1.0148	3.0926	176.52	12.947	9.6966e-06	0.018859
116.56	2.1044	563.25	0.0017754	-33.315	-29.578	3.7588	0.98083	3.4978	377.67	0.86713	4.4226e-05	0.069619	0.0011493	97.210	0.010287	58.384	80.032	4.6992	1.0168	3.1206	176.42	12.913	9.7185e-06	0.018960
116.66	2.1157	562.20	0.0017787	-33.019	-29.256	3.7614	0.98137	3.5174	376.00	0.87928	4.4052e-05	0.069430	0.0011340	97.904	0.010214	58.286	79.896	4.6970	1.0187	3.1492	176.33	12.880	9.7406e-06	0.019063
116.77	2.1270	561.14	0.0017821	-32.723	-28.933	3.7640	0.98193	3.5374	374.33	0.89160	4.3877e-05	0.069242	0.0011188	98.604	0.010142	58.186	79.758	4.6948	1.0207	3.1784	176.24	12.846	9.7630e-06	0.019167
116.87	2.1383	560.07	0.0017855	-32.426	-28.608	3.7666	0.98250	3.5579	372.65	0.90410	4.3703e-05	0.069054	0.0011037	99.311	0.010069	58.086	79.617	4.6926	1.0227	3.2083	176.14	12.812	9.7855e-06	0.019273
116.97	2.1497	559.00	0.0017889	-32.128	-28.282	3.7692	0.98308	3.5788	370.96	0.91678	4.3528e-05	0.068865	0.0010885	100.02	0.0099976	57.983	79.476	4.6905	1.0247	3.2389	176.04	12.778	9.8082e-06	0.019380
117.07	2.1612	557.92	0.0017924	-31.829	-27.955	3.7718	0.98369	3.6001	369.27	0.92964	4.3354e-05	0.068677	0.0010734	100.74	0.0099261	57.880	79.332	4.6882	1.0267	3.2702	175.95	12.743	9.8312e-06	0.019489
117.17	2.1726	556.84	0.0017959	-31.529	-27.627	3.7744	0.98430	3.6219	367.57	0.94269	4.3179e-05	0.068489	0.0010584	101.47	0.0098549	57.775	79.186	4.6860	1.0288	3.3022	175.85	12.708	9.8544e-06	0.019599
117.27	2.1842	555.74	0.0017994	-31.228	-27.298	3.7771	0.98494	3.6442	365.86	0.95594	4.3004e-05	0.068301	0.0010434	102.21	0.0097841	57.668	79.038	4.6838	1.0309	3.3350	175.75	12.673	9.8778e-06	0.019711
117.38	2.1957	554.64	0.0018030	-30.925	-26.967	3.7797	0.98559	3.6670	364.15	0.96938	4.2828e-05	0.068113	0.0010285	102.95	0.0097137	57.559	78.888	4.6816	1.0330	3.3685	175.64	12.638	9.9014e-06	0.019824
117.48	2.2073	553.54	0.0018066	-30.622	-26.634	3.7824	0.98626	3.6903	362.44	0.98303	4.2653e-05	0.067925	0.0010135	103.70	0.0096435	57.449	78.736	4.6793	1.0352	3.4029	175.54	12.603	9.9252e-06	0.019940
117.58	2.2190	552.43	0.0018102	-30.317	-26.301	3.7850	0.98695	3.7141	360.71	0.99688	4.2477e-05	0.067737	0.00099868	104.45	0.0095737	57.338	78.582	4.6771	1.0373	3.4381	175.44	12.568	9.9493e-06	0.020057
117.68	2.2307	551.30	0.0018139	-30.012	-25.966	3.7877	0.98766	3.7385	358.98	1.0109	4.2302e-05	0.067549	0.00098387	105.22	0.0095042	57.224	78.426	4.6748	1.0395	3.4741	175.34	12.532	9.9737e-06	0.020175
117.78	2.2425	550.18	0.0018176	-29.705	-25.629	3.7904	0.98839	3.7635	357.24	1.0252	4.2126e-05	0.067361	0.00096909	105.99	0.0094351	57.109	78.267	4.6725	1.0418	3.5111	175.23	12.496	9.9983e-06	0.020296
117.88	2.2543	549.04	0.0018214	-29.397	-25.291	3.7931	0.98914	3.7891	355.50	1.0397	4.1949e-05	0.067174	0.00095437	106.77	0.0093662	56.993	78.106	4.6702	1.0440	3.5490	175.12	12.460	1.0023e-05	0.020418
117.99	2.2661	547.90	0.0018252	-29.088	-24.952	3.7958	0.98990	3.8153	353.75	1.0545	4.1773e-05	0.066986	0.00093969	107.55	0.0092976	56.874	77.943	4.6679	1.0463	3.5879	175.02	12.423	1.0048e-05	0.020542
118.09	2.2780	546.75	0.0018290	-28.777	-24.611	3.7985	0.99069	3.8421	351.99	1.0694	4.1596e-05	0.066799	0.00092506	108.35	0.0092294	56.754	77.778	4.6655	1.0486	3.6277	174.91	12.386	1.0074e-05	0.020669
118.19	2.2899	545.59	0.0018329	-28.466	-24.268	3.8012	0.99150	3.8696	350.23	1.0846	4.1419e-05	0.066612	0.00091047	109.15	0.0091614	56.632	77.611	4.6632	1.0510	3.6686	174.80	12.350	1.0099e-05	0.020797
118.29	2.3019	544.42	0.0018368	-28.153	-23.924	3.8039	0.99234	3.8978	348.45	1.1001	4.1242e-05	0.066425	0.00089594	109.97	0.0090937	56.508	77.441	4.6608	1.0533	3.7106	174.68	12.312	1.0125e-05	0.020927
118.39	2.3139	543.24	0.0018408	-27.838	-23.579	3.8066	0.99320	3.9267	346.67	1.1158	4.1065e-05	0.066238	0.00088145	110.79	0.0090263	56.382	77.268	4.6584	1.0557	3.7538	174.57	12.275	1.0151e-05	0.021060
118.49	2.3260	542.06	0.0018448	-27.523	-23.232	3.8094	0.99408	3.9563	344.88	1.1317	4.0887e-05	0.066051	0.00086701	111.62	0.0089592	56.254	77.093	4.6560	1.0582	3.7981	174.46	12.237	1.0178e-05	0.021194
118.60	2.3381	540.87	0.0018489	-27.206	-22.883	3.8121	0.99498	3.9868	343.09	1.1480	4.0709e-05	0.065865	0.00085262	112.46	0.0088924	56.124	76.916	4.6536	1.0606	3.8436	174.34	12.199	1.0205e-05	0.021331
118.70	2.3503	539.66	0.0018530	-26.887	-22.532	3.8149	0.99591	4.0180	341.28	1.1645	4.0530e-05	0.065678	0.00083828	113.30	0.0088259	55.992	76.736	4.6512	1.0631	3.8904	174.23	12.161	1.0232e-05	0.021470
118.80	2.3625	538.45	0.0018572	-26.567	-22.180	3.8177	0.99687	4.0501	339.47	1.1812	4.0351e-05	0.065492	0.00082399	114.16	0.0087596	55.858	76.553	4.6488	1.0657	3.9385	174.11	12.122	1.0259e-05	0.021612
118.90	2.3748	537.23	0.0018614	-26.246	-21.826	3.8205	0.99786	4.0830	337.65	1.1983	4.0172e-05	0.065306	0.00080975	115.03	0.0086935	55.722	76.367	4.6463	1.0682	3.9880	173.99	12.084	1.0287e-05	0.021756
119.00	2.3871	536.00	0.0018657	-25.923	-21.470	3.8233	0.99887	4.1169	335.82	1.2156	3.9993e-05	0.065121	0.00079556	115.90	0.0086278	55.584	76.179	4.6438	1.0708	4.0390	173.87	12.044	1.0315e-05	0.021903
119.10	2.3995	534.76	0.0018700	-25.599	-21.112	3.8261	0.99991	4.1517	333.98	1.2333	3.9813e-05	0.064935	0.00078142	116.79	0.0085622	55.444	75.988	4.6413	1.0735	4.0914	173.75	12.005	1.0344e-05	0.022052
119.21	2.4119	533.51	0.0018744	-25.273	-20.752	3.8289	1.0010	4.1876	332.13	1.2513	3.9633e-05	0.064750	0.00076734	117.69	0.0084970	55.301	75.795	4.6388	1.0762	4.1454	173.62	11.965	1.0372e-05	0.022204
119.31	2.4243	532.25	0.0018788	-24.946	-20.391	3.8317	1.0021	4.2244	330.27	1.2696	3.9452e-05	0.064566	0.00075331	118.60	0.0084319	55.156	75.598	4.6363	1.0789	4.2011	173.50	11.925	1.0401e-05	0.022358
119.41	2.4368	530.98	0.0018833	-24.617	-20.027	3.8346	1.0032	4.2624	328.40	1.2882	3.9271e-05	0.064382	0.00073933	119.52	0.0083671	55.009	75.398	4.6337	1.0816	4.2585	173.37	11.885	1.0431e-05	0.022516
119.51	2.4494	529.70	0.0018879	-24.286	-19.662	3.8374	1.0044	4.3015	326.53	1.3072	3.9089e-05	0.064198	0.00072541	120.45	0.0083025	54.859	75.195	4.6312	1.0844	4.3176	173.25	11.844	1.0461e-05	0.022676
119.61	2.4620	528.40	0.0018925	-23.953	-19.294	3.8403	1.0056	4.3417	324.64	1.3265	3.8907e-05	0.064014	0.00071154	121.39	0.0082382	54.707	74.989	4.6286	1.0873	4.3787	173.12	11.803	1.0491e-05	0.022840
119.71	2.4746	527.10	0.0018972	-23.619	-18.924	3.8432	1.0069	4.3833	322.74	1.3462	3.8724e-05	0.063831	0.00069773	122.34	0.0081741	54.552	74.780	4.6259	1.0902	4.4417	172.99	11.762	1.0522e-05	0.023007
119.82	2.4873	525.78	0.0019019	-23.283	-18.553	3.8461	1.0081	4.4261	320.83	1.3662	3.8541e-05	0.063649	0.00068397	123.30	0.0081101	54.395	74.568	4.6233	1.0931	4.5068	172.85	11.720	1.0553e-05	0.023177
119.92	2.5001	524.45	0.0019067	-22.945	-18.178	3.8490	1.0095	4.4703	318.91	1.3866	3.8357e-05	0.063467	0.00067027	124.28	0.0080464	54.235	74.352	4.6206	1.0960	4.5741	172.72	11.678	1.0585e-05	0.023350
120.02	2.5129	523.11	0.0019116	-22.606	-17.802	3.8520	1.0108	4.5159	316.98	1.4075	3.8173e-05	0.063285	0.00065663	125.27	0.0079829	54.073	74.133	4.6180	1.0991	4.6436	172.58	11.635	1.0617e-05	0.023527
120.12	2.5257	521.76	0.0019166	-22.264	-17.423	3.8549	1.0122	4.5631	315.04	1.4287	3.7988e-05	0.063104	0.00064304	126.27	0.0079196	53.907	73.910	4.6153	1.1021	4.7155	172.45	11.592	1.0649e-05	0.023707
120.22	2.5387	520.40	0.0019216	-21.920	-17.042	3.8579	1.0137	4.6118	313.08	1.4504	3.7802e-05	0.062924	0.00062952	127.28	0.0078564	53.739	73.684	4.6125	1.1053	4.7900	172.31	11.549	1.0682e-05	0.023891
120.32	2.5516	519.02	0.0019267	-21.575	-16.658	3.8609	1.0152	4.6622	311.12	1.4725	3.7616e-05	0.062745	0.00061605	128.31	0.0077935	53.568	73.454	4.6098	1.1084	4.8671	172.17	11.505	1.0715e-05	0.024080
120.43	2.5646	517.63	0.0019319	-21.227	-16.272	3.8639	1.0167	4.7144	309.14	1.4950	3.7429e-05	0.062566	0.00060265	129.35	0.0077307	53.394	73.220	4.6070	1.1116	4.9470	172.02	11.461	1.0749e-05	0.024272
120.53	2.5777	516.22	0.0019372	-20.877	-15.883	3.8669	1.0183	4.7684	307.14	1.5180	3.7242e-05	0.062388	0.00058930	130.41	0.0076681	53.217	72.982	4.6042	1.1149	5.0299	171.88	11.417	1.0784e-05	0.024468
120.63	2.5908	514.80	0.0019425	-20.525	-15.492	3.8699	1.0200	4.8244	305.14	1.5415	3.7053e-05	0.062212	0.00057602	131.48	0.0076056	53.036	72.740	4.6013	1.1183	5.1159	171.73	11.371	1.0819e-05	0.024669
120.73	2.6039	513.36	0.0019479	-20.170	-15.098	3.8730	1.0217	4.8825	303.12	1.5655	3.6864e-05	0.062036	0.00056280	132.57	0.0075433	52.852	72.495	4.5985	1.1217	5.2052	171.58	11.326	1.0854e-05	0.024874
120.83	2.6171	511.91	0.0019535	-19.813	-14.701	3.8760	1.0234	4.9428	301.08	1.5900	3.6674e-05	0.061861	0.00054964	133.67	0.0074811	52.665	72.244	4.5956	1.1251	5.2979	171.43	11.280	1.0891e-05	0.025084
120.93	2.6304	510.45	0.0019591	-19.454	-14.301	3.8791	1.0253	5.0053	299.04	1.6150	3.6483e-05	0.061687	0.00053655	134.79	0.0074191	52.475	71.990	4.5927	1.1286	5.3944	171.28	11.233	1.0927e-05	0.025299
121.04	2.6437	508.96	0.0019648	-19.092	-13.898	3.8822	1.0271	5.0704	296.97	1.6406	3.6292e-05	0.061514	0.00052352	135.92	0.0073572	52.281	71.731	4.5897	1.1322	5.4947	171.12	11.186	1.0965e-05	0.025519
121.14	2.6571	507.47	0.0019706	-18.728	-13.492	3.8854	1.0291	5.1381	294.89	1.6667	3.6099e-05	0.061343	0.00051056	137.07	0.0072954	52.083	71.467	4.5867	1.1359	5.5993	170.96	11.139	1.1003e-05	0.025744
121.24	2.6705	505.95	0.0019765	-18.360	-13.082	3.8885	1.0311	5.2085	292.80	1.6935	3.5906e-05	0.061174	0.00049767	138.24	0.0072337	51.882	71.199	4.5837	1.1396	5.7082	170.80	11.091	1.1041e-05	0.025975
121.34	2.6840	504.41	0.0019825	-17.991	-12.670	3.8917	1.0332	5.2819	290.69	1.7208	3.5711e-05	0.061005	0.00048484	139.43	0.0071721	51.676	70.926	4.5807	1.1434	5.8219	170.63	11.042	1.1080e-05	0.026212
121.44	2.6975	502.86	0.0019886	-17.618	-12.254	3.8949	1.0354	5.3584	288.56	1.7488	3.5516e-05	0.060839	0.00047209	140.63	0.0071106	51.467	70.648	4.5776	1.1473	5.9405	170.47	10.993	1.1121e-05	0.026455
121.54	2.7111	501.29	0.0019949	-17.242	-11.834	3.8982	1.0376	5.4383	286.41	1.7775	3.5319e-05	0.060674	0.00045940	141.86	0.0070492	51.253	70.364	4.5744	1.1513	6.0645	170.30	10.943	1.1161e-05	0.026704
121.65	2.7247	499.70	0.0020012	-16.863	-11.411	3.9014	1.0400	5.5218	284.25	1.8069	3.5121e-05	0.060511	0.00044679	143.10	0.0069879	51.035	70.075	4.5713	1.1554	6.1942	170.12	10.893	1.1203e-05	0.026960
121.75	2.7384	498.08	0.0020077	-16.481	-10.984	3.9047	1.0424	5.6092	282.07	1.8369	3.4922e-05	0.060351	0.00043425	144.37	0.0069266	50.813	69.781	4.5681	1.1595	6.3301	169.95	10.842	1.1245e-05	0.027224
121.85	2.7521	496.45	0.0020143	-16.096	-10.553	3.9080	1.0449	5.7006	279.86	1.8678	3.4722e-05	0.060192	0.00042178	145.66	0.0068654	50.586	69.480	4.5648	1.1638	6.4725	169.77	10.790	1.1288e-05	0.027494
121.95	2.7659	494.79	0.0020210	-15.708	-10.118	3.9114	1.0476	5.7965	277.64	1.8994	3.4521e-05	0.060037	0.00040939	146.97	0.0068042	50.354	69.174	4.5616	1.1681	6.6219	169.59	10.738	1.1333e-05	0.027772
122.05	2.7797	493.11	0.0020279	-15.315	-9.6783	3.9147	1.0503	5.8971	275.40	1.9318	3.4318e-05	0.059884	0.00039708	148.30	0.0067431	50.117	68.861	4.5582	1.1726	6.7789	169.40	10.684	1.1378e-05	0.028059
122.15	2.7937	491.41	0.0020350	-14.920	-9.2346	3.9181	1.0531	6.0028	273.13	1.9651	3.4114e-05	0.059733	0.00038484	149.66	0.0066819	49.875	68.542	4.5548	1.1771	6.9440	169.21	10.630	1.1423e-05	0.028354
122.26	2.8076	489.68	0.0020421	-14.520	-8.7863	3.9216	1.0561	6.1141	270.85	1.9993	3.3908e-05	0.059587	0.00037268	151.04	0.0066208	49.628	68.217	4.5514	1.1818	7.1179	169.01	10.576	1.1470e-05	0.028658
122.36	2.8216	487.93	0.0020495	-14.116	-8.3333	3.9250	1.0592	6.2313	268.54	2.0344	3.3700e-05	0.059443	0.00036061	152.45	0.0065596	49.375	67.884	4.5479	1.1866	7.3013	168.81	10.520	1.1518e-05	0.028972
122.46	2.8357	486.15	0.0020570	-13.708	-7.8752	3.9285	1.0624	6.3550	266.20	2.0704	3.3491e-05	0.059303	0.00034861	153.88	0.0064984	49.116	67.544	4.5444	1.1915	7.4951	168.61	10.464	1.1567e-05	0.029297
122.56	2.8498	484.34	0.0020647	-13.296	-7.4120	3.9321	1.0658	6.4858	263.84	2.1075	3.3280e-05	0.059168	0.00033670	155.35	0.0064372	48.852	67.196	4.5408	1.1966	7.7000	168.40	10.407	1.1618e-05	0.029632
122.66	2.8640	482.50	0.0020725	-12.879	-6.9433	3.9357	1.0693	6.6241	261.46	2.1457	3.3068e-05	0.059037	0.00032488	156.84	0.0063758	48.581	66.841	4.5372	1.2018	7.9170	168.19	10.349	1.1669e-05	0.029979
122.76	2.8782	480.63	0.0020806	-12.457	-6.4690	3.9393	1.0730	6.7709	259.04	2.1850	3.2853e-05	0.058911	0.00031315	158.37	0.0063145	48.303	66.477	4.5335	1.2072	8.1474	167.97	10.290	1.1722e-05	0.030338
122.87	2.8925	478.72	0.0020889	-12.031	-5.9887	3.9430	1.0768	6.9268	256.60	2.2254	3.2636e-05	0.058790	0.00030150	159.92	0.0062530	48.018	66.105	4.5297	1.2127	8.3923	167.74	10.230	1.1776e-05	0.030710
122.97	2.9069	476.79	0.0020974	-11.599	-5.5021	3.9467	1.0809	7.0927	254.13	2.2671	3.2418e-05	0.058675	0.00028995	161.52	0.0061913	47.726	65.724	4.5259	1.2184	8.6530	167.51	10.168	1.1831e-05	0.031096
123.07	2.9213	474.81	0.0021061	-11.162	-5.0090	3.9504	1.0851	7.2696	251.63	2.3102	3.2197e-05	0.058566	0.00027849	163.14	0.0061296	47.427	65.333	4.5220	1.2243	8.9313	167.27	10.106	1.1888e-05	0.031497
123.17	2.9358	472.80	0.0021150	-10.718	-4.5089	3.9543	1.0895	7.4588	249.10	2.3545	3.1973e-05	0.058464	0.00026713	164.81	0.0060676	47.119	64.933	4.5180	1.2303	9.2290	167.03	10.043	1.1947e-05	0.031915
123.27	2.9503	470.75	0.0021243	-10.269	-4.0016	3.9581	1.0942	7.6614	246.53	2.4004	3.1747e-05	0.058369	0.00025586	166.51	0.0060055	46.803	64.521	4.5140	1.2366	9.5479	166.77	9.9784	1.2007e-05	0.032350
123.37	2.9649	468.66	0.0021337	-9.8129	-3.4865	3.9620	1.0991	7.8790	243.93	2.4478	3.1518e-05	0.058283	0.00024470	168.26	0.0059431	46.478	64.099	4.5099	1.2432	9.8907	166.51	9.9126	1.2069e-05	0.032804
123.48	2.9796	466.52	0.0021435	-9.3501	-2.9633	3.9660	1.1043	8.1133	241.29	2.4968	3.1286e-05	0.058206	0.00023364	170.05	0.0058805	46.144	63.665	4.5056	1.2499	10.260	166.24	9.8454	1.2133e-05	0.033278
123.58	2.9943	464.33	0.0021536	-8.8799	-2.4314	3.9701	1.1097	8.3664	238.61	2.5476	3.1051e-05	0.058139	0.00022269	171.89	0.0058176	45.800	63.219	4.5013	1.2570	10.659	165.96	9.7769	1.2199e-05	0.033774
123.68	3.0090	462.10	0.0021640	-8.4020	-1.8903	3.9742	1.1155	8.6405	235.89	2.6002	3.0813e-05	0.058083	0.00021184	173.78	0.0057543	45.445	62.760	4.4969	1.2643	11.091	165.67	9.7069	1.2267e-05	0.034294
123.78	3.0239	459.81	0.0021748	-7.9158	-1.3394	3.9784	1.1216	8.9385	233.13	2.6548	3.0571e-05	0.058039	0.00020111	175.73	0.0056907	45.079	62.287	4.4924	1.2719	11.560	165.37	9.6353	1.2338e-05	0.034841
123.88	3.0388	457.46	0.0021860	-7.4207	-0.77804	3.9827	1.1281	9.2635	230.33	2.7114	3.0325e-05	0.058009	0.00019050	177.73	0.0056267	44.701	61.799	4.4878	1.2798	12.073	165.05	9.5620	1.2410e-05	0.035417
123.98	3.0537	455.05	0.0021976	-6.9162	-0.20540	3.9870	1.1349	9.6195	227.47	2.7703	3.0076e-05	0.057993	0.00018001	179.79	0.0055622	44.310	61.295	4.4831	1.2881	12.633	164.73	9.4869	1.2486e-05	0.036024
124.09	3.0687	452.57	0.0022096	-6.4013	0.37934	3.9915	1.1422	10.011	224.57	2.8317	2.9821e-05	0.057993	0.00016964	181.91	0.0054971	43.905	60.775	4.4782	1.2969	13.250	164.38	9.4100	1.2565e-05	0.036667
124.19	3.0838	450.02	0.0022221	-5.8755	0.97713	3.9960	1.1500	10.444	221.61	2.8956	2.9562e-05	0.058013	0.00015940	184.11	0.0054315	43.486	60.236	4.4732	1.3060	13.931	164.02	9.3310	1.2646e-05	0.037349
124.29	3.0990	447.39	0.0022352	-5.3376	1.5891	4.0007	1.1584	10.924	218.59	2.9622	2.9298e-05	0.058052	0.00014929	186.39	0.0053652	43.050	59.677	4.4680	1.3156	14.688	163.64	9.2498	1.2731e-05	0.038075
124.39	3.1142	444.68	0.0022488	-4.7868	2.2164	4.0054	1.1673	11.462	215.52	3.0319	2.9028e-05	0.058115	0.00013932	188.74	0.0052982	42.597	59.097	4.4627	1.3258	15.532	163.25	9.1663	1.2820e-05	0.038851
124.49	3.1295	441.88	0.0022631	-4.2217	2.8605	4.0103	1.1769	12.066	212.37	3.1049	2.8752e-05	0.058205	0.00012950	191.19	0.0052303	42.125	58.493	4.4572	1.3366	16.481	162.82	9.0803	1.2913e-05	0.039682
124.59	3.1448	438.97	0.0022781	-3.6409	3.5231	4.0154	1.1872	12.750	209.16	3.1814	2.8468e-05	0.058325	0.00011983	193.74	0.0051615	41.633	57.864	4.4515	1.3480	17.554	162.38	8.9915	1.3011e-05	0.040578
124.70	3.1602	435.95	0.0022938	-3.0429	4.2061	4.0206	1.1983	13.531	205.87	3.2619	2.8177e-05	0.058480	0.00011031	196.40	0.0050916	41.117	57.207	4.4456	1.3601	18.777	161.90	8.8997	1.3114e-05	0.041548
124.80	3.1757	432.81	0.0023105	-2.4256	4.9118	4.0259	1.2104	14.431	202.50	3.3466	2.7878e-05	0.058677	0.00010097	199.19	0.0050204	40.576	56.519	4.4395	1.3731	20.184	161.39	8.8046	1.3222e-05	0.042604
124.90	3.1912	429.52	0.0023282	-1.7868	5.6429	4.0315	1.2236	15.480	199.04	3.4360	2.7569e-05	0.058923	9.1793e-05	202.11	0.0049479	40.006	55.796	4.4331	1.3871	21.819	160.85	8.7058	1.3337e-05	0.043762
125.00	3.2069	426.08	0.0023470	-1.1236	6.4029	4.0373	1.2380	16.717	195.48	3.5308	2.7250e-05	0.059228	8.2805e-05	205.18	0.0048737	39.404	55.034	4.4263	1.4021	23.743	160.26	8.6030	1.3460e-05	0.045040
